# from http://www.stsci.edu/jwst/instruments/nircam/instrumentdesign/filters
# Retrieved March, 2023, dated Nov, 2022 (post-flight)
# Uses modA or modB  filters+DBS+QE+OTE (nrc_plus_ote)
# Units of transmission are PCE (photon to electron conversion efficiency)
# 
12487.9  0.000000e+00
12497.9  0.000000e+00
12507.9  6.628494e-06
12517.9  7.403774e-06
12527.9  7.613427e-06
12537.9  8.780723e-06
12547.9  9.432695e-06
12557.9  1.005243e-05
12567.9  1.088249e-05
12577.9  1.176950e-05
12587.9  1.317932e-05
12597.9  1.417501e-05
12607.9  1.576572e-05
12617.9  1.665509e-05
12627.9  1.931497e-05
12637.9  2.119551e-05
12647.9  2.320732e-05
12657.9  2.580903e-05
12667.9  2.838639e-05
12677.9  3.141236e-05
12687.9  3.443947e-05
12697.9  3.894865e-05
12707.9  4.418508e-05
12717.9  4.924219e-05
12727.9  5.566637e-05
12737.9  6.270436e-05
12747.9  7.137251e-05
12757.9  8.109774e-05
12767.9  9.332006e-05
12777.9  1.061921e-04
12787.9  1.217153e-04
12797.9  1.396758e-04
12807.9  1.600195e-04
12817.9  1.845744e-04
12827.9  2.119143e-04
12837.9  2.427994e-04
12847.9  2.786087e-04
12857.9  3.212951e-04
12867.9  3.723704e-04
12877.9  4.261088e-04
12887.9  4.953562e-04
12897.9  5.778928e-04
12907.9  6.690070e-04
12917.9  7.761981e-04
12927.9  9.183235e-04
12937.9  1.075599e-03
12947.9  1.259240e-03
12957.9  1.506181e-03
12967.9  1.787122e-03
12977.9  2.137674e-03
12987.9  2.585221e-03
12997.9  3.117753e-03
13007.9  3.784522e-03
13017.9  4.609387e-03
13027.9  5.642804e-03
13037.9  6.862508e-03
13047.9  8.289496e-03
13057.9  9.808097e-03
13067.9  1.102811e-02
13077.9  1.162234e-02
13087.9  1.285170e-02
13097.9  1.435376e-02
13107.9  1.573735e-02
13117.9  1.726788e-02
13127.9  1.965736e-02
13137.9  2.202391e-02
13147.9  2.516022e-02
13157.9  2.787437e-02
13167.9  3.210345e-02
13177.9  3.653066e-02
13187.9  4.305437e-02
13197.9  5.055146e-02
13207.9  5.988342e-02
13217.9  6.989962e-02
13227.9  8.288808e-02
13237.9  9.662314e-02
13247.9  1.138777e-01
13257.9  1.308586e-01
13267.9  1.521620e-01
13277.9  1.751447e-01
13287.9  2.013244e-01
13297.9  2.286033e-01
13307.9  2.568555e-01
13317.9  2.840967e-01
13327.9  3.100227e-01
13337.9  3.350457e-01
13347.9  3.571025e-01
13357.9  3.736189e-01
13367.9  3.890642e-01
13377.9  4.014580e-01
13387.9  4.103655e-01
13397.9  4.158091e-01
13407.9  4.194343e-01
13417.9  4.224315e-01
13427.9  4.244323e-01
13437.9  4.280555e-01
13447.9  4.268676e-01
13457.9  4.292462e-01
13467.9  4.301883e-01
13477.9  4.315054e-01
13487.9  4.328608e-01
13497.9  4.339349e-01
13507.9  4.358628e-01
13517.9  4.352714e-01
13527.9  4.357931e-01
13537.9  4.380600e-01
13547.9  4.369620e-01
13557.9  4.376596e-01
13567.9  4.368519e-01
13577.9  4.366001e-01
13587.9  4.365225e-01
13597.9  4.356384e-01
13607.9  4.350826e-01
13617.9  4.338970e-01
13627.9  4.338101e-01
13637.9  4.323268e-01
13647.9  4.348329e-01
13657.9  4.355627e-01
13667.9  4.341307e-01
13677.9  4.347420e-01
13687.9  4.347077e-01
13697.9  4.353757e-01
13707.9  4.365375e-01
13717.9  4.356815e-01
13727.9  4.352596e-01
13737.9  4.343505e-01
13747.9  4.341251e-01
13757.9  4.352035e-01
13767.9  4.344734e-01
13777.9  4.345687e-01
13787.9  4.347431e-01
13797.9  4.345767e-01
13807.9  4.326442e-01
13817.9  4.322044e-01
13827.9  4.345856e-01
13837.9  4.333493e-01
13847.9  4.316675e-01
13857.9  4.333012e-01
13867.9  4.326715e-01
13877.9  4.308111e-01
13887.9  4.318511e-01
13897.9  4.330558e-01
13907.9  4.336613e-01
13917.9  4.324324e-01
13927.9  4.341748e-01
13937.9  4.334763e-01
13947.9  4.356403e-01
13957.9  4.351020e-01
13967.9  4.357602e-01
13977.9  4.373971e-01
13987.9  4.372627e-01
13997.9  4.361797e-01
14007.9  4.391175e-01
14017.9  4.390371e-01
14027.9  4.394116e-01
14037.9  4.416871e-01
14047.9  4.422828e-01
14057.9  4.434602e-01
14067.9  4.431364e-01
14077.9  4.435961e-01
14087.9  4.437230e-01
14097.9  4.454966e-01
14107.9  4.449090e-01
14117.9  4.475570e-01
14127.9  4.479141e-01
14137.9  4.499797e-01
14147.9  4.500158e-01
14157.9  4.510806e-01
14167.9  4.522710e-01
14177.9  4.507796e-01
14187.9  4.541221e-01
14197.9  4.543413e-01
14207.9  4.546607e-01
14217.9  4.541669e-01
14227.9  4.568789e-01
14237.9  4.575581e-01
14247.9  4.580711e-01
14257.9  4.582889e-01
14267.9  4.581206e-01
14277.9  4.593784e-01
14287.9  4.591409e-01
14297.9  4.610607e-01
14307.9  4.621810e-01
14317.9  4.627760e-01
14327.9  4.619647e-01
14337.9  4.612284e-01
14347.9  4.632391e-01
14357.9  4.643308e-01
14367.9  4.632005e-01
14377.9  4.643717e-01
14387.9  4.647233e-01
14397.9  4.635816e-01
14407.9  4.662899e-01
14417.9  4.648142e-01
14427.9  4.660829e-01
14437.9  4.655784e-01
14447.9  4.668134e-01
14457.9  4.667195e-01
14467.9  4.669517e-01
14477.9  4.660588e-01
14487.9  4.693750e-01
14497.9  4.692050e-01
14507.9  4.676544e-01
14517.9  4.693539e-01
14527.9  4.704526e-01
14537.9  4.676607e-01
14547.9  4.667764e-01
14557.9  4.679251e-01
14567.9  4.658366e-01
14577.9  4.661469e-01
14587.9  4.670742e-01
14597.9  4.663445e-01
14607.9  4.638897e-01
14617.9  4.635888e-01
14627.9  4.633320e-01
14637.9  4.632524e-01
14647.9  4.627550e-01
14657.9  4.622102e-01
14667.9  4.607520e-01
14677.9  4.601386e-01
14687.9  4.604261e-01
14697.9  4.597917e-01
14707.9  4.585478e-01
14717.9  4.568621e-01
14727.9  4.579293e-01
14737.9  4.559545e-01
14747.9  4.584640e-01
14757.9  4.572671e-01
14767.9  4.597627e-01
14777.9  4.574149e-01
14787.9  4.583825e-01
14797.9  4.588433e-01
14807.9  4.589842e-01
14817.9  4.579982e-01
14827.9  4.602709e-01
14837.9  4.600897e-01
14847.9  4.621244e-01
14857.9  4.635495e-01
14867.9  4.626674e-01
14877.9  4.636789e-01
14887.9  4.645092e-01
14897.9  4.653691e-01
14907.9  4.654776e-01
14917.9  4.688278e-01
14927.9  4.685817e-01
14937.9  4.698096e-01
14947.9  4.689319e-01
14957.9  4.705999e-01
14967.9  4.722419e-01
14977.9  4.715157e-01
14987.9  4.727103e-01
14997.9  4.764307e-01
15007.9  4.756125e-01
15017.9  4.761580e-01
15027.9  4.759545e-01
15037.9  4.782804e-01
15047.9  4.797673e-01
15057.9  4.790473e-01
15067.9  4.817758e-01
15077.9  4.808953e-01
15087.9  4.822792e-01
15097.9  4.835257e-01
15107.9  4.848582e-01
15117.9  4.837111e-01
15127.9  4.857374e-01
15137.9  4.860155e-01
15147.9  4.863481e-01
15157.9  4.867520e-01
15167.9  4.884905e-01
15177.9  4.897400e-01
15187.9  4.864655e-01
15197.9  4.886717e-01
15207.9  4.877559e-01
15217.9  4.860045e-01
15227.9  4.908922e-01
15237.9  4.859539e-01
15247.9  4.857995e-01
15257.9  4.866421e-01
15267.9  4.874752e-01
15277.9  4.866779e-01
15287.9  4.852853e-01
15297.9  4.850338e-01
15307.9  4.854368e-01
15317.9  4.847279e-01
15327.9  4.851898e-01
15337.9  4.848555e-01
15347.9  4.827745e-01
15357.9  4.841333e-01
15367.9  4.832367e-01
15377.9  4.854227e-01
15387.9  4.839272e-01
15397.9  4.833184e-01
15407.9  4.834682e-01
15417.9  4.832385e-01
15427.9  4.833356e-01
15437.9  4.851132e-01
15447.9  4.805251e-01
15457.9  4.837941e-01
15467.9  4.836601e-01
15477.9  4.827988e-01
15487.9  4.835809e-01
15497.9  4.799154e-01
15507.9  4.825717e-01
15517.9  4.815349e-01
15527.9  4.825572e-01
15537.9  4.809681e-01
15547.9  4.831855e-01
15557.9  4.800225e-01
15567.9  4.798257e-01
15577.9  4.799266e-01
15587.9  4.800021e-01
15597.9  4.806056e-01
15607.9  4.807137e-01
15617.9  4.811852e-01
15627.9  4.789771e-01
15637.9  4.792058e-01
15647.9  4.785541e-01
15657.9  4.792210e-01
15667.9  4.802096e-01
15677.9  4.817429e-01
15687.9  4.810137e-01
15697.9  4.803516e-01
15707.9  4.817394e-01
15717.9  4.815133e-01
15727.9  4.845644e-01
15737.9  4.824467e-01
15747.9  4.861849e-01
15757.9  4.860606e-01
15767.9  4.884686e-01
15777.9  4.893279e-01
15787.9  4.887353e-01
15797.9  4.903275e-01
15807.9  4.909716e-01
15817.9  4.923974e-01
15827.9  4.936902e-01
15837.9  4.943971e-01
15847.9  4.969998e-01
15857.9  4.957740e-01
15867.9  4.950369e-01
15877.9  4.963110e-01
15887.9  4.958979e-01
15897.9  4.956310e-01
15907.9  4.967030e-01
15917.9  4.980747e-01
15927.9  4.995363e-01
15937.9  4.986547e-01
15947.9  4.974765e-01
15957.9  4.992837e-01
15967.9  4.999157e-01
15977.9  4.999777e-01
15987.9  4.999041e-01
15997.9  4.977014e-01
16007.9  4.998548e-01
16017.9  5.006109e-01
16027.9  4.997848e-01
16037.9  4.994848e-01
16047.9  4.991629e-01
16057.9  4.994734e-01
16067.9  5.005634e-01
16077.9  5.016866e-01
16087.9  4.989346e-01
16097.9  4.993331e-01
16107.9  5.001229e-01
16117.9  5.002669e-01
16127.9  4.989073e-01
16137.9  4.999035e-01
16147.9  4.986817e-01
16157.9  5.005068e-01
16167.9  4.997360e-01
16177.9  5.023424e-01
16187.9  4.997499e-01
16197.9  5.012148e-01
16207.9  4.997303e-01
16217.9  5.016955e-01
16227.9  5.010914e-01
16237.9  5.002183e-01
16247.9  5.003787e-01
16257.9  5.008685e-01
16267.9  4.995998e-01
16277.9  5.010911e-01
16287.9  5.024961e-01
16297.9  5.006198e-01
16307.9  5.019371e-01
16317.9  5.027044e-01
16327.9  5.026781e-01
16337.9  5.020911e-01
16347.9  5.018901e-01
16357.9  5.028231e-01
16367.9  5.025179e-01
16377.9  5.030474e-01
16387.9  5.010115e-01
16397.9  5.029357e-01
16407.9  5.008508e-01
16417.9  5.008958e-01
16427.9  5.018740e-01
16437.9  5.014380e-01
16447.9  4.983942e-01
16457.9  5.007149e-01
16467.9  5.010119e-01
16477.9  5.035638e-01
16487.9  5.033113e-01
16497.9  5.025793e-01
16507.9  5.049589e-01
16517.9  5.045321e-01
16527.9  5.064258e-01
16537.9  5.069713e-01
16547.9  5.067627e-01
16557.9  5.035542e-01
16567.9  5.006859e-01
16577.9  4.958866e-01
16587.9  4.862233e-01
16597.9  4.731298e-01
16607.9  4.567481e-01
16617.9  4.362512e-01
16627.9  4.108613e-01
16637.9  3.813315e-01
16647.9  3.515338e-01
16657.9  3.206580e-01
16667.9  2.860017e-01
16677.9  2.538384e-01
16687.9  2.216957e-01
16697.9  1.915871e-01
16707.9  1.654036e-01
16717.9  1.409355e-01
16727.9  1.200258e-01
16737.9  1.028912e-01
16747.9  8.892830e-02
16757.9  7.839147e-02
16767.9  6.836229e-02
16777.9  6.028505e-02
16787.9  5.237165e-02
16797.9  4.627243e-02
16807.9  4.088587e-02
16817.9  3.698906e-02
16827.9  3.252465e-02
16837.9  2.874758e-02
16847.9  2.469362e-02
16857.9  2.079792e-02
16867.9  1.755693e-02
16877.9  1.477546e-02
16887.9  1.231527e-02
16897.9  1.037425e-02
16907.9  8.710888e-03
16917.9  7.324189e-03
16927.9  6.138068e-03
16937.9  5.194540e-03
16947.9  4.384516e-03
16957.9  3.693939e-03
16967.9  3.159570e-03
16977.9  2.677368e-03
16987.9  2.281074e-03
16997.9  1.956726e-03
17007.9  1.692058e-03
17017.9  1.448479e-03
17027.9  1.251236e-03
17037.9  1.083891e-03
17047.9  9.416502e-04
17057.9  8.222831e-04
17067.9  7.179587e-04
17077.9  6.263812e-04
17087.9  5.496415e-04
17097.9  4.848867e-04
17107.9  4.272174e-04
17117.9  3.792893e-04
17127.9  3.377507e-04
17137.9  2.960800e-04
17147.9  2.660473e-04
17157.9  2.366411e-04
17167.9  2.129525e-04
17177.9  1.908949e-04
17187.9  1.711344e-04
17197.9  1.546611e-04
17207.9  1.404835e-04
17217.9  1.284364e-04
17227.9  1.143244e-04
17237.9  1.047606e-04
17247.9  9.574497e-05
17257.9  8.725844e-05
17267.9  7.828342e-05
17277.9  7.337218e-05
17287.9  6.548904e-05
17297.9  6.169116e-05
17307.9  5.641498e-05
17317.9  5.175494e-05
17327.9  4.751946e-05
17337.9  4.212198e-05
17347.9  4.092258e-05
17357.9  3.647591e-05
17367.9  3.426060e-05
17377.9  3.271298e-05
17387.9  2.883490e-05
17397.9  2.747042e-05
17407.9  2.528265e-05
17417.9  2.276205e-05
17427.9  2.164675e-05
17437.9  2.144093e-05
17447.9  1.922628e-05
17457.9  1.897882e-05
17467.9  1.727979e-05
17477.9  1.723180e-05
17487.9  1.635776e-05
17497.9  1.412499e-05
17507.9  0.000000e+00
17517.9  0.000000e+00
