# from http://www.stsci.edu/jwst/instruments/nircam/instrumentdesign/filters
# Retrieved March, 2023, dated Nov, 2022 (post-flight)
# Uses modA or modB  filters+DBS+QE+OTE (nrc_plus_ote)
# Units of transmission are PCE (photon to electron conversion efficiency)
# 
39982.9  0.000000e+00
39996.5  0.000000e+00
40010.0  2.705541e-05
40023.5  2.841682e-05
40037.0  2.747319e-05
40050.5  2.545031e-05
40064.0  2.472502e-05
40077.5  2.446114e-05
40091.0  2.433099e-05
40104.5  2.490694e-05
40118.1  2.590909e-05
40131.6  2.687453e-05
40145.1  2.563355e-05
40158.6  2.348242e-05
40172.1  2.124273e-05
40185.6  1.915820e-05
40199.1  1.916572e-05
40212.6  2.147206e-05
40226.2  2.449009e-05
40239.7  2.712399e-05
40253.2  2.908188e-05
40266.7  2.954317e-05
40280.2  2.840538e-05
40293.7  2.618129e-05
40307.2  2.573568e-05
40320.7  2.761370e-05
40334.3  3.229886e-05
40347.8  3.515078e-05
40361.3  3.217225e-05
40374.8  2.976110e-05
40388.3  3.191137e-05
40401.8  3.650658e-05
40415.3  4.089212e-05
40428.8  4.367472e-05
40442.4  4.570662e-05
40455.9  4.844987e-05
40469.4  5.404660e-05
40482.9  5.937659e-05
40496.4  6.143736e-05
40509.9  6.206738e-05
40523.4  6.566450e-05
40536.9  7.539760e-05
40550.5  8.676952e-05
40564.0  9.708936e-05
40577.5  1.073423e-04
40591.0  1.167454e-04
40604.5  1.250607e-04
40618.0  1.330231e-04
40631.5  1.427094e-04
40645.0  1.549400e-04
40658.6  1.680156e-04
40672.1  1.804488e-04
40685.6  1.921342e-04
40699.1  2.039838e-04
40712.6  2.171330e-04
40726.1  2.311919e-04
40739.6  2.478545e-04
40753.1  2.687503e-04
40766.7  2.921274e-04
40780.2  3.165615e-04
40793.7  3.417428e-04
40807.2  3.693991e-04
40820.7  3.993095e-04
40834.2  4.323735e-04
40847.7  4.698135e-04
40861.2  5.108384e-04
40874.8  5.543229e-04
40888.3  6.014046e-04
40901.8  6.570731e-04
40915.3  7.189624e-04
40928.8  7.856028e-04
40942.3  8.577027e-04
40955.8  9.359352e-04
40969.3  1.020873e-03
40982.8  1.114742e-03
40996.4  1.219948e-03
41009.9  1.335483e-03
41023.4  1.462638e-03
41036.9  1.603593e-03
41050.4  1.762453e-03
41063.9  1.937792e-03
41077.4  2.128389e-03
41090.9  2.338503e-03
41104.5  2.570756e-03
41118.0  2.828940e-03
41131.5  3.117316e-03
41145.0  3.441446e-03
41158.5  3.802279e-03
41172.0  4.201214e-03
41185.5  4.641651e-03
41199.0  5.131704e-03
41212.6  5.681915e-03
41226.1  6.297545e-03
41239.6  6.984234e-03
41253.1  7.753507e-03
41266.6  8.612885e-03
41280.1  9.574723e-03
41293.6  1.064630e-02
41307.1  1.184634e-02
41320.7  1.319125e-02
41334.2  1.469390e-02
41347.7  1.637662e-02
41361.2  1.826734e-02
41374.7  2.038647e-02
41388.2  2.275834e-02
41401.7  2.542074e-02
41415.2  2.840227e-02
41428.8  3.174429e-02
41442.3  3.549183e-02
41455.8  3.968759e-02
41469.3  4.438269e-02
41482.8  4.963892e-02
41496.3  5.550536e-02
41509.8  6.205912e-02
41523.3  6.935885e-02
41536.9  7.745368e-02
41550.4  8.644487e-02
41563.9  9.638640e-02
41577.4  1.073561e-01
41590.9  1.193993e-01
41604.4  1.325474e-01
41617.9  1.468628e-01
41631.4  1.623899e-01
41645.0  1.791078e-01
41658.5  1.969635e-01
41672.0  2.157997e-01
41685.5  2.355949e-01
41699.0  2.562612e-01
41712.5  2.776704e-01
41726.0  2.994830e-01
41739.5  3.212105e-01
41753.1  3.429424e-01
41766.6  3.643625e-01
41780.1  3.852625e-01
41793.6  4.053007e-01
41807.1  4.237586e-01
41820.6  4.409983e-01
41834.1  4.568623e-01
41847.6  4.712929e-01
41861.1  4.841923e-01
41874.7  4.950168e-01
41888.2  5.044685e-01
41901.7  5.126114e-01
41915.2  5.194643e-01
41928.7  5.250830e-01
41942.2  5.294627e-01
41955.7  5.329767e-01
41969.2  5.357329e-01
41982.8  5.378507e-01
41996.3  5.394026e-01
42009.8  5.403955e-01
42023.3  5.410614e-01
42036.8  5.414625e-01
42050.3  5.416798e-01
42063.8  5.416820e-01
42077.3  5.415596e-01
42090.9  5.414076e-01
42104.4  5.412151e-01
42117.9  5.409864e-01
42131.4  5.407797e-01
42144.9  5.406395e-01
42158.4  5.405340e-01
42171.9  5.404744e-01
42185.4  5.404892e-01
42199.0  5.405977e-01
42212.5  5.407287e-01
42226.0  5.409243e-01
42239.5  5.411909e-01
42253.0  5.415105e-01
42266.5  5.418330e-01
42280.0  5.421954e-01
42293.5  5.425946e-01
42307.1  5.430047e-01
42320.6  5.433863e-01
42334.1  5.438057e-01
42347.6  5.442158e-01
42361.1  5.445916e-01
42374.6  5.449356e-01
42388.1  5.452969e-01
42401.6  5.456170e-01
42415.2  5.459069e-01
42428.7  5.461647e-01
42442.2  5.464073e-01
42455.7  5.465576e-01
42469.2  5.466371e-01
42482.7  5.466554e-01
42496.2  5.466400e-01
42509.7  5.464947e-01
42523.3  5.462822e-01
42536.8  5.460177e-01
42550.3  5.456898e-01
42563.8  5.452275e-01
42577.3  5.446766e-01
42590.8  5.440458e-01
42604.3  5.433142e-01
42617.8  5.424292e-01
42631.4  5.413854e-01
42644.9  5.401826e-01
42658.4  5.387725e-01
42671.9  5.371187e-01
42685.4  5.351185e-01
42698.9  5.327835e-01
42712.4  5.301851e-01
42725.9  5.274212e-01
42739.5  5.248369e-01
42753.0  5.232057e-01
42766.5  5.227933e-01
42780.0  5.236928e-01
42793.5  5.259686e-01
42807.0  5.285407e-01
42820.5  5.305023e-01
42834.0  5.316701e-01
42847.5  5.319838e-01
42861.1  5.315220e-01
42874.6  5.308523e-01
42888.1  5.300964e-01
42901.6  5.293538e-01
42915.1  5.285732e-01
42928.6  5.278124e-01
42942.1  5.271075e-01
42955.6  5.264197e-01
42969.2  5.257317e-01
42982.7  5.251043e-01
42996.2  5.244961e-01
43009.7  5.239232e-01
43023.2  5.233838e-01
43036.7  5.228975e-01
43050.2  5.224935e-01
43063.7  5.221115e-01
43077.3  5.217553e-01
43090.8  5.215277e-01
43104.3  5.213411e-01
43117.8  5.212051e-01
43131.3  5.211326e-01
43144.8  5.211408e-01
43158.3  5.212024e-01
43171.8  5.213343e-01
43185.4  5.214687e-01
43198.9  5.217008e-01
43212.4  5.220000e-01
43225.9  5.222966e-01
43239.4  5.226146e-01
43252.9  5.230295e-01
43266.4  5.234113e-01
43279.9  5.237808e-01
43293.5  5.241666e-01
43307.0  5.245447e-01
43320.5  5.249149e-01
43334.0  5.252079e-01
43347.5  5.254492e-01
43361.0  5.256694e-01
43374.5  5.257697e-01
43388.0  5.257748e-01
43401.6  5.257090e-01
43415.1  5.255050e-01
43428.6  5.251721e-01
43442.1  5.247352e-01
43455.6  5.241399e-01
43469.1  5.234187e-01
43482.6  5.225958e-01
43496.1  5.216042e-01
43509.7  5.204876e-01
43523.2  5.192623e-01
43536.7  5.179103e-01
43550.2  5.164570e-01
43563.7  5.149105e-01
43577.2  5.132936e-01
43590.7  5.116188e-01
43604.2  5.098632e-01
43617.8  5.080810e-01
43631.3  5.062637e-01
43644.8  5.043902e-01
43658.3  5.024582e-01
43671.8  5.004807e-01
43685.3  4.983987e-01
43698.8  4.961971e-01
43712.3  4.938128e-01
43725.8  4.911735e-01
43739.4  4.882339e-01
43752.9  4.849417e-01
43766.4  4.810179e-01
43779.9  4.764377e-01
43793.4  4.711921e-01
43806.9  4.652193e-01
43820.4  4.578492e-01
43833.9  4.494917e-01
43847.5  4.401144e-01
43861.0  4.294307e-01
43874.5  4.170145e-01
43888.0  4.034426e-01
43901.5  3.887651e-01
43915.0  3.723710e-01
43928.5  3.545807e-01
43942.0  3.359353e-01
43955.6  3.166231e-01
43969.1  2.957622e-01
43982.6  2.747052e-01
43996.1  2.536757e-01
44009.6  2.326152e-01
44023.1  2.115914e-01
44036.6  1.914243e-01
44050.1  1.722848e-01
44063.7  1.539517e-01
44077.2  1.368894e-01
44090.7  1.212676e-01
44104.2  1.070345e-01
44117.7  9.409324e-02
44131.2  8.256252e-02
44144.7  7.232573e-02
44158.2  6.326730e-02
44171.8  5.530509e-02
44185.3  4.833263e-02
44198.8  4.223810e-02
44212.3  3.694356e-02
44225.8  3.233363e-02
44239.3  2.832072e-02
44252.8  2.483754e-02
44266.3  2.181827e-02
44279.9  1.918935e-02
44293.4  1.689772e-02
44306.9  1.491264e-02
44320.4  1.318195e-02
44333.9  1.166881e-02
44347.4  1.034632e-02
44360.9  9.190209e-03
44374.4  8.174654e-03
44388.0  7.282288e-03
44401.5  6.499128e-03
44415.0  5.808152e-03
44428.5  5.197944e-03
44442.0  4.660914e-03
44455.5  4.183385e-03
44469.0  3.759501e-03
44482.5  3.384434e-03
44496.1  3.053107e-03
44509.6  2.754962e-03
44523.1  2.486949e-03
44536.6  2.250049e-03
44550.1  2.040231e-03
44563.6  1.851813e-03
44577.1  1.680917e-03
44590.6  1.527180e-03
44604.1  1.388701e-03
44617.7  1.264003e-03
44631.2  1.152696e-03
44644.7  1.054551e-03
44658.2  9.669246e-04
44671.7  8.868933e-04
44685.2  8.100080e-04
44698.7  7.387565e-04
44712.2  6.737952e-04
44725.8  6.161314e-04
44739.3  5.640267e-04
44752.8  5.168296e-04
44766.3  4.740639e-04
44779.8  4.340903e-04
44793.3  3.974172e-04
44806.8  3.652017e-04
44820.3  3.375737e-04
44833.9  3.115798e-04
44847.4  2.854894e-04
44860.9  2.611494e-04
44874.4  2.409872e-04
44887.9  2.249184e-04
44901.4  2.092466e-04
44914.9  1.923307e-04
44928.4  1.751887e-04
44942.0  1.592469e-04
44955.5  1.467264e-04
44969.0  1.369722e-04
44982.5  1.305531e-04
44996.0  1.235696e-04
45009.5  1.153548e-04
45023.0  1.053423e-04
45036.5  9.662637e-05
45050.1  8.844944e-05
45063.6  8.105676e-05
45077.1  7.118205e-05
45090.6  6.378117e-05
45104.1  5.863313e-05
45117.6  5.513649e-05
45131.1  5.012098e-05
45144.6  4.498808e-05
45158.2  4.137681e-05
45171.7  3.997645e-05
45185.2  3.891186e-05
45198.7  3.718816e-05
45212.2  3.516126e-05
45225.7  3.353893e-05
45239.2  3.249608e-05
45252.7  3.180483e-05
45266.3  3.122505e-05
45279.8  3.073904e-05
45293.3  3.007648e-05
45306.8  2.985740e-05
45320.3  3.001744e-05
45333.8  3.009000e-05
45347.3  2.841569e-05
45360.8  2.579574e-05
45374.4  2.349721e-05
45387.9  2.352791e-05
45401.4  2.453036e-05
45414.9  2.475013e-05
45428.4  2.313685e-05
45441.9  2.115212e-05
45455.4  1.972838e-05
45468.9  1.933930e-05
45482.5  1.966398e-05
45496.0  2.030917e-05
45509.5  0.000000e+00
45523.0  0.000000e+00
