# from http://www.stsci.edu/jwst/instruments/nircam/instrumentdesign/filters
# Retrieved March, 2023, dated Nov, 2022 (post-flight)
# Uses modA or modB  filters+DBS+QE+OTE (nrc_plus_ote)
# Units of transmission are PCE (photon to electron conversion efficiency)
# 
12487.9  0.000000e+00
12497.9  0.000000e+00
12507.9  6.280406e-06
12517.9  7.119600e-06
12527.9  7.574356e-06
12537.9  8.060531e-06
12547.9  9.065766e-06
12557.9  9.812783e-06
12567.9  1.059149e-05
12577.9  1.134744e-05
12587.9  1.247559e-05
12597.9  1.350687e-05
12607.9  1.502355e-05
12617.9  1.609794e-05
12627.9  1.819423e-05
12637.9  1.993089e-05
12647.9  2.186932e-05
12657.9  2.435220e-05
12667.9  2.682710e-05
12677.9  2.984794e-05
12687.9  3.295687e-05
12697.9  3.657334e-05
12707.9  4.148360e-05
12717.9  4.620110e-05
12727.9  5.235950e-05
12737.9  5.875703e-05
12747.9  6.672917e-05
12757.9  7.591198e-05
12767.9  8.671646e-05
12777.9  9.868752e-05
12787.9  1.129040e-04
12797.9  1.293221e-04
12807.9  1.482763e-04
12817.9  1.704312e-04
12827.9  1.955103e-04
12837.9  2.243139e-04
12847.9  2.571600e-04
12857.9  2.957967e-04
12867.9  3.423022e-04
12877.9  3.917037e-04
12887.9  4.547580e-04
12897.9  5.281786e-04
12907.9  6.106247e-04
12917.9  7.070386e-04
12927.9  8.337043e-04
12937.9  9.716042e-04
12947.9  1.135384e-03
12957.9  1.353343e-03
12967.9  1.599953e-03
12977.9  1.904239e-03
12987.9  2.293824e-03
12997.9  2.759835e-03
13007.9  3.331655e-03
13017.9  4.054416e-03
13027.9  4.944383e-03
13037.9  6.001534e-03
13047.9  7.272344e-03
13057.9  8.732695e-03
13067.9  1.009232e-02
13077.9  1.104124e-02
13087.9  1.225142e-02
13097.9  1.332471e-02
13107.9  1.459823e-02
13117.9  1.620970e-02
13127.9  1.817482e-02
13137.9  2.027327e-02
13147.9  2.316434e-02
13157.9  2.562923e-02
13167.9  2.939127e-02
13177.9  3.333549e-02
13187.9  3.893707e-02
13197.9  4.501366e-02
13207.9  5.343833e-02
13217.9  6.261861e-02
13227.9  7.420034e-02
13237.9  8.644554e-02
13247.9  1.024190e-01
13257.9  1.181514e-01
13267.9  1.376721e-01
13277.9  1.588634e-01
13287.9  1.833108e-01
13297.9  2.094139e-01
13307.9  2.376639e-01
13317.9  2.653909e-01
13327.9  2.931711e-01
13337.9  3.203148e-01
13347.9  3.439741e-01
13357.9  3.650884e-01
13367.9  3.828759e-01
13377.9  3.978064e-01
13387.9  4.088893e-01
13397.9  4.171769e-01
13407.9  4.226782e-01
13417.9  4.264504e-01
13427.9  4.292244e-01
13437.9  4.331916e-01
13447.9  4.324649e-01
13457.9  4.339216e-01
13467.9  4.363599e-01
13477.9  4.369788e-01
13487.9  4.385157e-01
13497.9  4.395383e-01
13507.9  4.412543e-01
13517.9  4.418069e-01
13527.9  4.422912e-01
13537.9  4.440166e-01
13547.9  4.432550e-01
13557.9  4.436952e-01
13567.9  4.433566e-01
13577.9  4.429148e-01
13587.9  4.429544e-01
13597.9  4.426216e-01
13607.9  4.420585e-01
13617.9  4.415872e-01
13627.9  4.405130e-01
13637.9  4.410353e-01
13647.9  4.417484e-01
13657.9  4.419449e-01
13667.9  4.407622e-01
13677.9  4.406532e-01
13687.9  4.419969e-01
13697.9  4.414712e-01
13707.9  4.427761e-01
13717.9  4.428003e-01
13727.9  4.414854e-01
13737.9  4.411169e-01
13747.9  4.409533e-01
13757.9  4.412363e-01
13767.9  4.410230e-01
13777.9  4.412330e-01
13787.9  4.407929e-01
13797.9  4.403009e-01
13807.9  4.393923e-01
13817.9  4.389408e-01
13827.9  4.403958e-01
13837.9  4.395927e-01
13847.9  4.388399e-01
13857.9  4.391143e-01
13867.9  4.391982e-01
13877.9  4.378346e-01
13887.9  4.383674e-01
13897.9  4.387170e-01
13907.9  4.391227e-01
13917.9  4.384884e-01
13927.9  4.398493e-01
13937.9  4.395565e-01
13947.9  4.405163e-01
13957.9  4.410559e-01
13967.9  4.412601e-01
13977.9  4.422682e-01
13987.9  4.422064e-01
13997.9  4.423049e-01
14007.9  4.441939e-01
14017.9  4.446742e-01
14027.9  4.454053e-01
14037.9  4.465304e-01
14047.9  4.469778e-01
14057.9  4.483280e-01
14067.9  4.485557e-01
14077.9  4.485792e-01
14087.9  4.500775e-01
14097.9  4.509646e-01
14107.9  4.502708e-01
14117.9  4.523505e-01
14127.9  4.533520e-01
14137.9  4.547897e-01
14147.9  4.549418e-01
14157.9  4.561167e-01
14167.9  4.576637e-01
14177.9  4.572693e-01
14187.9  4.595357e-01
14197.9  4.598183e-01
14207.9  4.599693e-01
14217.9  4.612813e-01
14227.9  4.616158e-01
14237.9  4.630865e-01
14247.9  4.634892e-01
14257.9  4.627473e-01
14267.9  4.644035e-01
14277.9  4.647062e-01
14287.9  4.648984e-01
14297.9  4.670674e-01
14307.9  4.668994e-01
14317.9  4.676863e-01
14327.9  4.668794e-01
14337.9  4.675172e-01
14347.9  4.686654e-01
14357.9  4.682779e-01
14367.9  4.684379e-01
14377.9  4.699209e-01
14387.9  4.697738e-01
14397.9  4.697187e-01
14407.9  4.711970e-01
14417.9  4.700527e-01
14427.9  4.708999e-01
14437.9  4.717429e-01
14447.9  4.725209e-01
14457.9  4.717102e-01
14467.9  4.722579e-01
14477.9  4.720196e-01
14487.9  4.739769e-01
14497.9  4.729269e-01
14507.9  4.729771e-01
14517.9  4.739671e-01
14527.9  4.739425e-01
14537.9  4.723308e-01
14547.9  4.714475e-01
14557.9  4.725661e-01
14567.9  4.713529e-01
14577.9  4.713150e-01
14587.9  4.720885e-01
14597.9  4.713042e-01
14607.9  4.695129e-01
14617.9  4.683782e-01
14627.9  4.677692e-01
14637.9  4.672858e-01
14647.9  4.671360e-01
14657.9  4.672609e-01
14667.9  4.652419e-01
14677.9  4.651654e-01
14687.9  4.653255e-01
14697.9  4.642816e-01
14707.9  4.626811e-01
14717.9  4.623985e-01
14727.9  4.629826e-01
14737.9  4.613434e-01
14747.9  4.630422e-01
14757.9  4.618051e-01
14767.9  4.625158e-01
14777.9  4.627355e-01
14787.9  4.629946e-01
14797.9  4.633453e-01
14807.9  4.628933e-01
14817.9  4.636831e-01
14827.9  4.645621e-01
14837.9  4.640969e-01
14847.9  4.656644e-01
14857.9  4.680821e-01
14867.9  4.670572e-01
14877.9  4.682480e-01
14887.9  4.688311e-01
14897.9  4.694884e-01
14907.9  4.703323e-01
14917.9  4.724037e-01
14927.9  4.728072e-01
14937.9  4.733490e-01
14947.9  4.738300e-01
14957.9  4.752249e-01
14967.9  4.765884e-01
14977.9  4.759073e-01
14987.9  4.769931e-01
14997.9  4.798590e-01
15007.9  4.804551e-01
15017.9  4.804794e-01
15027.9  4.808615e-01
15037.9  4.826819e-01
15047.9  4.832331e-01
15057.9  4.834946e-01
15067.9  4.851998e-01
15077.9  4.853101e-01
15087.9  4.868412e-01
15097.9  4.881997e-01
15107.9  4.886671e-01
15117.9  4.882891e-01
15127.9  4.900579e-01
15137.9  4.908056e-01
15147.9  4.897911e-01
15157.9  4.908308e-01
15167.9  4.911712e-01
15177.9  4.928508e-01
15187.9  4.906620e-01
15197.9  4.920262e-01
15207.9  4.912412e-01
15217.9  4.905466e-01
15227.9  4.931249e-01
15237.9  4.913998e-01
15247.9  4.904042e-01
15257.9  4.913279e-01
15267.9  4.913104e-01
15277.9  4.909173e-01
15287.9  4.903146e-01
15297.9  4.887450e-01
15307.9  4.905459e-01
15317.9  4.890875e-01
15327.9  4.886776e-01
15337.9  4.874140e-01
15347.9  4.881516e-01
15357.9  4.882566e-01
15367.9  4.874123e-01
15377.9  4.888235e-01
15387.9  4.879572e-01
15397.9  4.869830e-01
15407.9  4.869259e-01
15417.9  4.870808e-01
15427.9  4.869574e-01
15437.9  4.876819e-01
15447.9  4.866875e-01
15457.9  4.869812e-01
15467.9  4.868904e-01
15477.9  4.863122e-01
15487.9  4.877822e-01
15497.9  4.852824e-01
15507.9  4.866003e-01
15517.9  4.846543e-01
15527.9  4.863478e-01
15537.9  4.852129e-01
15547.9  4.864944e-01
15557.9  4.846251e-01
15567.9  4.839768e-01
15577.9  4.840427e-01
15587.9  4.843231e-01
15597.9  4.845934e-01
15607.9  4.839716e-01
15617.9  4.850460e-01
15627.9  4.828058e-01
15637.9  4.837642e-01
15647.9  4.832733e-01
15657.9  4.834670e-01
15667.9  4.844154e-01
15677.9  4.843580e-01
15687.9  4.846383e-01
15697.9  4.849907e-01
15707.9  4.850586e-01
15717.9  4.860904e-01
15727.9  4.886276e-01
15737.9  4.873630e-01
15747.9  4.896230e-01
15757.9  4.889891e-01
15767.9  4.914466e-01
15777.9  4.921203e-01
15787.9  4.917694e-01
15797.9  4.937576e-01
15807.9  4.950416e-01
15817.9  4.953494e-01
15827.9  4.963864e-01
15837.9  4.979312e-01
15847.9  4.994465e-01
15857.9  4.992745e-01
15867.9  4.977196e-01
15877.9  4.996799e-01
15887.9  4.989149e-01
15897.9  5.002052e-01
15907.9  5.001456e-01
15917.9  5.015145e-01
15927.9  5.020362e-01
15937.9  5.016190e-01
15947.9  5.009008e-01
15957.9  5.012250e-01
15967.9  5.031609e-01
15977.9  5.026109e-01
15987.9  5.025848e-01
15997.9  5.005945e-01
16007.9  5.035263e-01
16017.9  5.023464e-01
16027.9  5.023511e-01
16037.9  5.018668e-01
16047.9  5.033041e-01
16057.9  5.031867e-01
16067.9  5.033123e-01
16077.9  5.028771e-01
16087.9  5.023754e-01
16097.9  5.028936e-01
16107.9  5.028674e-01
16117.9  5.032245e-01
16127.9  5.018812e-01
16137.9  5.031697e-01
16147.9  5.029911e-01
16157.9  5.036052e-01
16167.9  5.039857e-01
16177.9  5.055479e-01
16187.9  5.024156e-01
16197.9  5.045656e-01
16207.9  5.026361e-01
16217.9  5.051247e-01
16227.9  5.037500e-01
16237.9  5.044058e-01
16247.9  5.043510e-01
16257.9  5.043323e-01
16267.9  5.035312e-01
16277.9  5.056220e-01
16287.9  5.052263e-01
16297.9  5.042217e-01
16307.9  5.049504e-01
16317.9  5.056248e-01
16327.9  5.065345e-01
16337.9  5.053736e-01
16347.9  5.055624e-01
16357.9  5.067900e-01
16367.9  5.059895e-01
16377.9  5.062047e-01
16387.9  5.053153e-01
16397.9  5.063330e-01
16407.9  5.047050e-01
16417.9  5.053149e-01
16427.9  5.047184e-01
16437.9  5.052497e-01
16447.9  5.015216e-01
16457.9  5.048124e-01
16467.9  5.041417e-01
16477.9  5.058800e-01
16487.9  5.047634e-01
16497.9  5.054485e-01
16507.9  5.064604e-01
16517.9  5.065726e-01
16527.9  5.087910e-01
16537.9  5.091310e-01
16547.9  5.088398e-01
16557.9  5.058968e-01
16567.9  5.041934e-01
16577.9  5.002318e-01
16587.9  4.925016e-01
16597.9  4.807872e-01
16607.9  4.678010e-01
16617.9  4.484351e-01
16627.9  4.265502e-01
16637.9  3.979728e-01
16647.9  3.693324e-01
16657.9  3.386648e-01
16667.9  3.052786e-01
16677.9  2.739573e-01
16687.9  2.410844e-01
16697.9  2.095400e-01
16707.9  1.824646e-01
16717.9  1.561757e-01
16727.9  1.338534e-01
16737.9  1.142134e-01
16747.9  9.835380e-02
16757.9  8.604689e-02
16767.9  7.488127e-02
16777.9  6.623123e-02
16787.9  5.762846e-02
16797.9  5.077986e-02
16807.9  4.472300e-02
16817.9  4.016735e-02
16827.9  3.530593e-02
16837.9  3.156090e-02
16847.9  2.759650e-02
16857.9  2.359990e-02
16867.9  2.008651e-02
16877.9  1.694419e-02
16887.9  1.416772e-02
16897.9  1.194744e-02
16907.9  1.004710e-02
16917.9  8.471890e-03
16927.9  7.088612e-03
16937.9  6.004692e-03
16947.9  5.067230e-03
16957.9  4.265273e-03
16967.9  3.642408e-03
16977.9  3.085508e-03
16987.9  2.630717e-03
16997.9  2.254413e-03
17007.9  1.943040e-03
17017.9  1.663880e-03
17027.9  1.437372e-03
17037.9  1.244611e-03
17047.9  1.076588e-03
17057.9  9.392685e-04
17067.9  8.200556e-04
17077.9  7.158354e-04
17087.9  6.272254e-04
17097.9  5.521964e-04
17107.9  4.855713e-04
17117.9  4.280069e-04
17127.9  3.806700e-04
17137.9  3.345562e-04
17147.9  2.995065e-04
17157.9  2.666491e-04
17167.9  2.390221e-04
17177.9  2.133191e-04
17187.9  1.922716e-04
17197.9  1.734075e-04
17207.9  1.567439e-04
17217.9  1.426151e-04
17227.9  1.279582e-04
17237.9  1.169416e-04
17247.9  1.061322e-04
17257.9  9.718795e-05
17267.9  8.730948e-05
17277.9  8.131217e-05
17287.9  7.283997e-05
17297.9  6.794206e-05
17307.9  6.238538e-05
17317.9  5.653086e-05
17327.9  5.312506e-05
17337.9  4.681586e-05
17347.9  4.432327e-05
17357.9  4.073380e-05
17367.9  3.740551e-05
17377.9  3.554112e-05
17387.9  3.276045e-05
17397.9  3.022920e-05
17407.9  2.774547e-05
17417.9  2.569323e-05
17427.9  2.395039e-05
17437.9  2.299464e-05
17447.9  2.085129e-05
17457.9  2.014276e-05
17467.9  1.830385e-05
17477.9  1.797436e-05
17487.9  1.727295e-05
17497.9  1.550687e-05
17507.9  0.000000e+00
17517.9  0.000000e+00
