# from http://www.stsci.edu/jwst/instruments/nircam/instrumentdesign/filters
# Retrieved March, 2023, dated Nov, 2022 (post-flight)
# Uses modA or modB  filters+DBS+QE+OTE (nrc_plus_ote)
# Units of transmission are PCE (photon to electron conversion efficiency)
# 
9682.0  0.000000e+00
9692.0  0.000000e+00
9702.0  5.075710e-06
9712.0  6.025538e-06
9722.0  7.000141e-06
9732.0  7.978001e-06
9742.0  8.878668e-06
9752.0  9.761713e-06
9762.0  1.066791e-05
9772.0  1.178205e-05
9782.0  1.321053e-05
9792.0  1.516745e-05
9802.0  1.778664e-05
9812.0  2.132570e-05
9822.0  2.612180e-05
9832.0  3.249674e-05
9842.0  4.072821e-05
9852.0  5.123029e-05
9862.0  6.404652e-05
9872.0  7.937806e-05
9882.0  9.728475e-05
9892.0  1.177653e-04
9902.0  1.410333e-04
9912.0  1.669384e-04
9922.0  1.961718e-04
9932.0  2.295635e-04
9942.0  2.686243e-04
9952.0  3.151753e-04
9962.0  3.729809e-04
9972.0  4.469961e-04
9982.0  1.511806e-02
9992.0  3.129345e-02
10002.0  4.957240e-02
10012.0  5.548940e-02
10022.0  6.277931e-02
10032.0  6.998971e-02
10042.0  7.872074e-02
10052.0  8.839228e-02
10062.0  1.012135e-01
10072.0  1.155328e-01
10082.0  1.310797e-01
10092.0  1.475813e-01
10102.0  1.635711e-01
10112.0  1.801451e-01
10122.0  1.953012e-01
10132.0  2.106997e-01
10142.0  2.238311e-01
10152.0  2.347885e-01
10162.0  2.417225e-01
10172.0  2.463023e-01
10182.0  2.480050e-01
10192.0  2.487748e-01
10202.0  2.476666e-01
10212.0  2.481588e-01
10222.0  2.471250e-01
10232.0  2.473588e-01
10242.0  2.465604e-01
10252.0  2.475767e-01
10262.0  2.481556e-01
10272.0  2.487244e-01
10282.0  2.500951e-01
10292.0  2.515382e-01
10302.0  2.535667e-01
10312.0  2.550241e-01
10322.0  2.576538e-01
10332.0  2.602374e-01
10342.0  2.643835e-01
10352.0  2.670780e-01
10362.0  2.693130e-01
10372.0  2.697229e-01
10382.0  2.730068e-01
10392.0  2.743370e-01
10402.0  2.766920e-01
10412.0  2.767063e-01
10422.0  2.788145e-01
10432.0  2.793277e-01
10442.0  2.799914e-01
10452.0  2.803770e-01
10462.0  2.818934e-01
10472.0  2.833329e-01
10482.0  2.844569e-01
10492.0  2.856508e-01
10502.0  2.867428e-01
10512.0  2.883478e-01
10522.0  2.891678e-01
10532.0  2.897125e-01
10542.0  2.908940e-01
10552.0  2.905898e-01
10562.0  2.909191e-01
10572.0  2.905285e-01
10582.0  2.900734e-01
10592.0  2.893254e-01
10602.0  2.877678e-01
10612.0  2.869416e-01
10622.0  2.850519e-01
10632.0  2.833296e-01
10642.0  2.826017e-01
10652.0  2.815252e-01
10662.0  2.801941e-01
10672.0  2.776620e-01
10682.0  2.762693e-01
10692.0  2.736445e-01
10702.0  2.712082e-01
10712.0  2.697896e-01
10722.0  2.687906e-01
10732.0  2.679027e-01
10742.0  2.659021e-01
10752.0  2.649956e-01
10762.0  2.647737e-01
10772.0  2.645795e-01
10782.0  2.649323e-01
10792.0  2.649484e-01
10802.0  2.656565e-01
10812.0  2.666310e-01
10822.0  2.674432e-01
10832.0  2.676361e-01
10842.0  2.686274e-01
10852.0  2.696542e-01
10862.0  2.714994e-01
10872.0  2.720881e-01
10882.0  2.734698e-01
10892.0  2.750917e-01
10902.0  2.770398e-01
10912.0  2.790909e-01
10922.0  2.810785e-01
10932.0  2.835211e-01
10942.0  2.856472e-01
10952.0  2.876432e-01
10962.0  2.888446e-01
10972.0  2.917556e-01
10982.0  2.945328e-01
10992.0  2.969429e-01
11002.0  2.971862e-01
11012.0  2.974744e-01
11022.0  2.986159e-01
11032.0  3.000471e-01
11042.0  3.007439e-01
11052.0  3.018233e-01
11062.0  3.019125e-01
11072.0  3.023863e-01
11082.0  3.014446e-01
11092.0  3.008214e-01
11102.0  3.013978e-01
11112.0  3.014710e-01
11122.0  3.018273e-01
11132.0  3.012036e-01
11142.0  3.013386e-01
11152.0  3.018455e-01
11162.0  3.011204e-01
11172.0  3.004512e-01
11182.0  2.997004e-01
11192.0  3.000329e-01
11202.0  3.001961e-01
11212.0  2.992993e-01
11222.0  2.984486e-01
11232.0  2.973917e-01
11242.0  2.974932e-01
11252.0  2.971823e-01
11262.0  2.975863e-01
11272.0  2.979906e-01
11282.0  2.986371e-01
11292.0  2.987094e-01
11302.0  2.989414e-01
11312.0  2.989252e-01
11322.0  3.003448e-01
11332.0  3.010032e-01
11342.0  3.018711e-01
11352.0  3.020660e-01
11362.0  3.032108e-01
11372.0  3.047415e-01
11382.0  3.056189e-01
11392.0  3.068253e-01
11402.0  3.076213e-01
11412.0  3.097044e-01
11422.0  3.121486e-01
11432.0  3.149142e-01
11442.0  3.184691e-01
11452.0  3.216179e-01
11462.0  3.237113e-01
11472.0  3.257421e-01
11482.0  3.276690e-01
11492.0  3.308193e-01
11502.0  3.332820e-01
11512.0  3.356359e-01
11522.0  3.378839e-01
11532.0  3.395225e-01
11542.0  3.413923e-01
11552.0  3.431278e-01
11562.0  3.451542e-01
11572.0  3.469016e-01
11582.0  3.481330e-01
11592.0  3.496515e-01
11602.0  3.505201e-01
11612.0  3.525073e-01
11622.0  3.535244e-01
11632.0  3.551604e-01
11642.0  3.560930e-01
11652.0  3.567426e-01
11662.0  3.578261e-01
11672.0  3.590278e-01
11682.0  3.600857e-01
11692.0  3.602006e-01
11702.0  3.601132e-01
11712.0  3.606764e-01
11722.0  3.614703e-01
11732.0  3.621099e-01
11742.0  3.624835e-01
11752.0  3.629259e-01
11762.0  3.624157e-01
11772.0  3.629413e-01
11782.0  3.626128e-01
11792.0  3.618140e-01
11802.0  3.612235e-01
11812.0  3.617590e-01
11822.0  3.625998e-01
11832.0  3.623777e-01
11842.0  3.614385e-01
11852.0  3.613435e-01
11862.0  3.608524e-01
11872.0  3.604142e-01
11882.0  3.596443e-01
11892.0  3.589978e-01
11902.0  3.593269e-01
11912.0  3.595608e-01
11922.0  3.589290e-01
11932.0  3.582962e-01
11942.0  3.572066e-01
11952.0  3.563198e-01
11962.0  3.549751e-01
11972.0  3.543561e-01
11982.0  3.537959e-01
11992.0  3.528714e-01
12002.0  3.521349e-01
12012.0  3.522403e-01
12022.0  3.519644e-01
12032.0  3.515788e-01
12042.0  3.516640e-01
12052.0  3.519000e-01
12062.0  3.509217e-01
12072.0  3.502442e-01
12082.0  3.499270e-01
12092.0  3.515718e-01
12102.0  3.513279e-01
12112.0  3.518247e-01
12122.0  3.517707e-01
12132.0  3.537654e-01
12142.0  3.545185e-01
12152.0  3.557707e-01
12162.0  3.552178e-01
12172.0  3.569623e-01
12182.0  3.581946e-01
12192.0  3.598960e-01
12202.0  3.607646e-01
12212.0  3.613727e-01
12222.0  3.631778e-01
12232.0  3.643410e-01
12242.0  3.662605e-01
12252.0  3.671156e-01
12262.0  3.683801e-01
12272.0  3.699444e-01
12282.0  3.711255e-01
12292.0  3.720844e-01
12302.0  3.743418e-01
12312.0  3.762248e-01
12322.0  3.788885e-01
12332.0  3.797322e-01
12342.0  3.815683e-01
12352.0  3.832567e-01
12362.0  3.852299e-01
12372.0  3.862122e-01
12382.0  3.874687e-01
12392.0  3.877069e-01
12402.0  3.893706e-01
12412.0  3.900478e-01
12422.0  3.913598e-01
12432.0  3.919931e-01
12442.0  3.935738e-01
12452.0  3.945105e-01
12462.0  3.957599e-01
12472.0  3.954870e-01
12482.0  3.957994e-01
12492.0  3.964388e-01
12502.0  3.958585e-01
12512.0  3.970994e-01
12522.0  3.975764e-01
12532.0  3.980571e-01
12542.0  3.967524e-01
12552.0  3.954566e-01
12562.0  3.953811e-01
12572.0  3.969679e-01
12582.0  3.973094e-01
12592.0  3.980581e-01
12602.0  3.981813e-01
12612.0  3.991765e-01
12622.0  4.001141e-01
12632.0  3.997141e-01
12642.0  3.991935e-01
12652.0  3.994733e-01
12662.0  3.990087e-01
12672.0  3.991953e-01
12682.0  3.978843e-01
12692.0  3.965177e-01
12702.0  3.935895e-01
12712.0  3.893736e-01
12722.0  3.829031e-01
12732.0  3.748187e-01
12742.0  3.644352e-01
12752.0  3.509822e-01
12762.0  3.337288e-01
12772.0  3.128813e-01
12782.0  2.883052e-01
12792.0  2.608514e-01
12802.0  2.314452e-01
12812.0  2.029881e-01
12822.0  1.767320e-01
12832.0  1.544908e-01
12842.0  1.349560e-01
12852.0  1.181752e-01
12862.0  1.021610e-01
12872.0  8.823615e-02
12882.0  7.583433e-02
12892.0  6.617568e-02
12902.0  5.791292e-02
12912.0  5.089952e-02
12922.0  4.438015e-02
12932.0  3.915355e-02
12942.0  3.458085e-02
12952.0  3.069063e-02
12962.0  2.677146e-02
12972.0  2.297488e-02
12982.0  1.923477e-02
12992.0  1.595383e-02
13002.0  1.315398e-02
13012.0  1.079387e-02
13022.0  8.829605e-03
13032.0  7.224882e-03
13042.0  5.929423e-03
13052.0  4.860714e-03
13062.0  3.997780e-03
13072.0  3.281851e-03
13082.0  2.714685e-03
13092.0  2.263193e-03
13102.0  1.887732e-03
13112.0  1.576752e-03
13122.0  1.321399e-03
13132.0  1.117899e-03
13142.0  9.455760e-04
13152.0  8.019295e-04
13162.0  6.823221e-04
13172.0  5.820105e-04
13182.0  4.995772e-04
13192.0  4.290717e-04
13202.0  3.698255e-04
13212.0  3.198627e-04
13222.0  2.782667e-04
13232.0  2.427792e-04
13242.0  2.122442e-04
13252.0  1.854462e-04
13262.0  1.629061e-04
13272.0  1.439683e-04
13282.0  1.271712e-04
13292.0  1.118869e-04
13302.0  9.929198e-05
13312.0  8.821921e-05
13322.0  7.898052e-05
13332.0  7.003638e-05
13342.0  6.265123e-05
13352.0  5.595946e-05
13362.0  5.053094e-05
13372.0  4.558887e-05
13382.0  4.111731e-05
13392.0  3.674533e-05
13402.0  3.330045e-05
13412.0  3.047841e-05
13422.0  2.862002e-05
13432.0  2.643184e-05
13442.0  2.422768e-05
13452.0  2.183425e-05
13462.0  1.986468e-05
13472.0  1.820911e-05
13482.0  1.675368e-05
13492.0  1.466019e-05
13502.0  1.370509e-05
13512.0  1.318463e-05
13522.0  1.196265e-05
13532.0  1.108631e-05
13542.0  9.456714e-06
13552.0  0.000000e+00
13562.0  0.000000e+00
