# from http://www.stsci.edu/jwst/instruments/nircam/instrumentdesign/filters
# Retrieved March, 2023, dated Nov, 2022 (post-flight)
# Uses modA or modB  filters+DBS+QE+OTE (nrc_plus_ote)
# Units of transmission are PCE (photon to electron conversion efficiency)
# 
12487.9  0.000000e+00
12497.9  0.000000e+00
12507.9  5.282374e-06
12517.9  6.091123e-06
12527.9  6.726648e-06
12537.9  6.519579e-06
12547.9  7.747848e-06
12557.9  8.532960e-06
12567.9  9.178344e-06
12577.9  9.728372e-06
12587.9  1.046895e-05
12597.9  1.142066e-05
12607.9  1.270212e-05
12617.9  1.383182e-05
12627.9  1.517016e-05
12637.9  1.658115e-05
12647.9  1.823764e-05
12657.9  2.033624e-05
12667.9  2.244246e-05
12677.9  2.512561e-05
12687.9  2.796789e-05
12697.9  3.034877e-05
12707.9  3.441159e-05
12717.9  3.828901e-05
12727.9  4.351718e-05
12737.9  4.860614e-05
12747.9  5.504307e-05
12757.9  6.269913e-05
12767.9  7.097734e-05
12777.9  8.077425e-05
12787.9  9.218634e-05
12797.9  1.053330e-04
12807.9  1.208740e-04
12817.9  1.383124e-04
12827.9  1.584755e-04
12837.9  1.821108e-04
12847.9  2.085091e-04
12857.9  2.390314e-04
12867.9  2.760511e-04
12877.9  3.158505e-04
12887.9  3.660338e-04
12897.9  4.226838e-04
12907.9  4.877505e-04
12917.9  5.632342e-04
12927.9  6.611878e-04
12937.9  7.654382e-04
12947.9  8.921755e-04
12957.9  1.058457e-03
12967.9  1.245134e-03
12977.9  1.471812e-03
12987.9  1.763202e-03
12997.9  2.114324e-03
13007.9  2.532726e-03
13017.9  3.078185e-03
13027.9  3.733269e-03
13037.9  4.518603e-03
13047.9  5.499009e-03
13057.9  6.738136e-03
13067.9  8.071584e-03
13077.9  9.240658e-03
13087.9  1.029349e-02
13097.9  1.084439e-02
13107.9  1.186844e-02
13117.9  1.336877e-02
13127.9  1.471270e-02
13137.9  1.631937e-02
13147.9  1.864831e-02
13157.9  2.059584e-02
13167.9  2.348854e-02
13177.9  2.652689e-02
13187.9  3.062331e-02
13197.9  3.467686e-02
13207.9  4.128159e-02
13217.9  4.861894e-02
13227.9  5.754863e-02
13237.9  6.698566e-02
13247.9  7.990892e-02
13257.9  9.264623e-02
13267.9  1.082332e-01
13277.9  1.252843e-01
13287.9  1.452623e-01
13297.9  1.672129e-01
13307.9  1.921398e-01
13317.9  2.170502e-01
13327.9  2.432670e-01
13337.9  2.691615e-01
13347.9  2.914945e-01
13357.9  3.143445e-01
13367.9  3.321681e-01
13377.9  3.476458e-01
13387.9  3.593910e-01
13397.9  3.692850e-01
13407.9  3.758246e-01
13417.9  3.798211e-01
13427.9  3.829346e-01
13437.9  3.867033e-01
13447.9  3.864412e-01
13457.9  3.868276e-01
13467.9  3.903104e-01
13477.9  3.901645e-01
13487.9  3.916393e-01
13497.9  3.924459e-01
13507.9  3.937152e-01
13517.9  3.952098e-01
13527.9  3.955547e-01
13537.9  3.965283e-01
13547.9  3.961208e-01
13557.9  3.962246e-01
13567.9  3.963122e-01
13577.9  3.957017e-01
13587.9  3.957984e-01
13597.9  3.959670e-01
13607.9  3.954190e-01
13617.9  3.956161e-01
13627.9  3.937168e-01
13637.9  3.959763e-01
13647.9  3.949089e-01
13657.9  3.945460e-01
13667.9  3.936906e-01
13677.9  3.928878e-01
13687.9  3.952917e-01
13697.9  3.936879e-01
13707.9  3.949222e-01
13717.9  3.957083e-01
13727.9  3.936884e-01
13737.9  3.938175e-01
13747.9  3.936871e-01
13757.9  3.931618e-01
13767.9  3.934059e-01
13777.9  3.936526e-01
13787.9  3.926592e-01
13797.9  3.918857e-01
13807.9  3.919852e-01
13817.9  3.915359e-01
13827.9  3.919213e-01
13837.9  3.915719e-01
13847.9  3.917216e-01
13857.9  3.906744e-01
13867.9  3.913609e-01
13877.9  3.905788e-01
13887.9  3.905401e-01
13897.9  3.900223e-01
13907.9  3.901544e-01
13917.9  3.901025e-01
13927.9  3.909060e-01
13937.9  3.909806e-01
13947.9  3.906791e-01
13957.9  3.920993e-01
13967.9  3.918226e-01
13977.9  3.920910e-01
13987.9  3.920636e-01
13997.9  3.931920e-01
14007.9  3.938479e-01
14017.9  3.947424e-01
14027.9  3.956698e-01
14037.9  3.955638e-01
14047.9  3.957810e-01
14057.9  3.970827e-01
14067.9  3.977476e-01
14077.9  3.973306e-01
14087.9  3.998575e-01
14097.9  3.997852e-01
14107.9  3.990424e-01
14117.9  4.003050e-01
14127.9  4.017322e-01
14137.9  4.023785e-01
14147.9  4.025794e-01
14157.9  4.036700e-01
14167.9  4.053111e-01
14177.9  4.059301e-01
14187.9  4.068922e-01
14197.9  4.071595e-01
14207.9  4.071003e-01
14217.9  4.098582e-01
14227.9  4.079436e-01
14237.9  4.099144e-01
14247.9  4.101286e-01
14257.9  4.085676e-01
14267.9  4.116427e-01
14277.9  4.109993e-01
14287.9  4.115224e-01
14297.9  4.136086e-01
14307.9  4.122508e-01
14317.9  4.130770e-01
14327.9  4.123400e-01
14337.9  4.141135e-01
14347.9  4.142946e-01
14357.9  4.125727e-01
14367.9  4.138524e-01
14377.9  4.153960e-01
14387.9  4.147780e-01
14397.9  4.156844e-01
14407.9  4.158198e-01
14417.9  4.150878e-01
14427.9  4.154089e-01
14437.9  4.173369e-01
14447.9  4.175653e-01
14457.9  4.161711e-01
14467.9  4.169021e-01
14477.9  4.172559e-01
14487.9  4.176932e-01
14497.9  4.159430e-01
14507.9  4.174095e-01
14517.9  4.175945e-01
14527.9  4.165183e-01
14537.9  4.161530e-01
14547.9  4.153510e-01
14557.9  4.162665e-01
14567.9  4.159721e-01
14577.9  4.155903e-01
14587.9  4.160928e-01
14597.9  4.153276e-01
14607.9  4.143377e-01
14617.9  4.125596e-01
14627.9  4.116779e-01
14637.9  4.108589e-01
14647.9  4.110134e-01
14657.9  4.117001e-01
14667.9  4.094014e-01
14677.9  4.097922e-01
14687.9  4.097862e-01
14697.9  4.084754e-01
14707.9  4.067282e-01
14717.9  4.077266e-01
14727.9  4.077676e-01
14737.9  4.066159e-01
14747.9  4.073308e-01
14757.9  4.061886e-01
14767.9  4.051595e-01
14777.9  4.076520e-01
14787.9  4.072067e-01
14797.9  4.073842e-01
14807.9  4.064253e-01
14817.9  4.086956e-01
14827.9  4.081693e-01
14837.9  4.074796e-01
14847.9  4.083929e-01
14857.9  4.113694e-01
14867.9  4.103212e-01
14877.9  4.114930e-01
14887.9  4.117495e-01
14897.9  4.121111e-01
14907.9  4.134850e-01
14917.9  4.141015e-01
14927.9  4.150148e-01
14937.9  4.148383e-01
14947.9  4.164616e-01
14957.9  4.174015e-01
14967.9  4.183088e-01
14977.9  4.177321e-01
14987.9  4.185520e-01
14997.9  4.202444e-01
15007.9  4.220178e-01
15017.9  4.215421e-01
15027.9  4.223794e-01
15037.9  4.234791e-01
15047.9  4.230864e-01
15057.9  4.241777e-01
15067.9  4.247088e-01
15077.9  4.256772e-01
15087.9  4.271164e-01
15097.9  4.283741e-01
15107.9  4.279736e-01
15117.9  4.283173e-01
15127.9  4.295972e-01
15137.9  4.306479e-01
15147.9  4.285250e-01
15157.9  4.299800e-01
15167.9  4.289885e-01
15177.9  4.308133e-01
15187.9  4.298717e-01
15197.9  4.302726e-01
15207.9  4.296871e-01
15217.9  4.300173e-01
15227.9  4.301463e-01
15237.9  4.315315e-01
15247.9  4.298853e-01
15257.9  4.307390e-01
15267.9  4.299338e-01
15277.9  4.299369e-01
15287.9  4.301069e-01
15297.9  4.275331e-01
15307.9  4.303387e-01
15317.9  4.283756e-01
15327.9  4.272123e-01
15337.9  4.252566e-01
15347.9  4.284232e-01
15357.9  4.273623e-01
15367.9  4.266578e-01
15377.9  4.271633e-01
15387.9  4.269611e-01
15397.9  4.257672e-01
15407.9  4.255125e-01
15417.9  4.259758e-01
15427.9  4.256516e-01
15437.9  4.253113e-01
15447.9  4.276755e-01
15457.9  4.252266e-01
15467.9  4.251695e-01
15477.9  4.249065e-01
15487.9  4.267850e-01
15497.9  4.256526e-01
15507.9  4.255709e-01
15517.9  4.230464e-01
15527.9  4.251042e-01
15537.9  4.245140e-01
15547.9  4.247646e-01
15557.9  4.242956e-01
15567.9  4.233107e-01
15577.9  4.233208e-01
15587.9  4.237335e-01
15597.9  4.236524e-01
15607.9  4.224400e-01
15617.9  4.239006e-01
15627.9  4.219154e-01
15637.9  4.233900e-01
15647.9  4.230956e-01
15657.9  4.228228e-01
15667.9  4.235945e-01
15677.9  4.220969e-01
15687.9  4.232366e-01
15697.9  4.244436e-01
15707.9  4.232993e-01
15717.9  4.253146e-01
15727.9  4.270369e-01
15737.9  4.266976e-01
15747.9  4.273108e-01
15757.9  4.262899e-01
15767.9  4.284516e-01
15777.9  4.288559e-01
15787.9  4.287581e-01
15797.9  4.308259e-01
15807.9  4.325035e-01
15817.9  4.317511e-01
15827.9  4.324078e-01
15837.9  4.344902e-01
15847.9  4.348119e-01
15857.9  4.356020e-01
15867.9  4.335077e-01
15877.9  4.358138e-01
15887.9  4.348240e-01
15897.9  4.373347e-01
15907.9  4.362538e-01
15917.9  4.374272e-01
15927.9  4.370228e-01
15937.9  4.370707e-01
15947.9  4.368543e-01
15957.9  4.357902e-01
15967.9  4.386325e-01
15977.9  4.375965e-01
15987.9  4.376085e-01
15997.9  4.360683e-01
16007.9  4.393002e-01
16017.9  4.365270e-01
16027.9  4.372720e-01
16037.9  4.366793e-01
16047.9  4.395009e-01
16057.9  4.390070e-01
16067.9  4.382405e-01
16077.9  4.364535e-01
16087.9  4.380394e-01
16097.9  4.385896e-01
16107.9  4.378261e-01
16117.9  4.383212e-01
16127.9  4.371672e-01
16137.9  4.385405e-01
16147.9  4.393200e-01
16157.9  4.387561e-01
16167.9  4.401172e-01
16177.9  4.405247e-01
16187.9  4.373225e-01
16197.9  4.397963e-01
16207.9  4.377211e-01
16217.9  4.403427e-01
16227.9  4.384550e-01
16237.9  4.403958e-01
16247.9  4.401511e-01
16257.9  4.396739e-01
16267.9  4.393984e-01
16277.9  4.417450e-01
16287.9  4.397788e-01
16297.9  4.396916e-01
16307.9  4.397901e-01
16317.9  4.402881e-01
16327.9  4.419164e-01
16337.9  4.403932e-01
16347.9  4.409060e-01
16357.9  4.422323e-01
16367.9  4.410925e-01
16377.9  4.409949e-01
16387.9  4.412564e-01
16397.9  4.413208e-01
16407.9  4.403225e-01
16417.9  4.413589e-01
16427.9  4.394251e-01
16437.9  4.407558e-01
16447.9  4.369134e-01
16457.9  4.406355e-01
16467.9  4.391848e-01
16477.9  4.399581e-01
16487.9  4.382148e-01
16497.9  4.400848e-01
16507.9  4.397312e-01
16517.9  4.403153e-01
16527.9  4.425296e-01
16537.9  4.426410e-01
16547.9  4.423170e-01
16557.9  4.400111e-01
16567.9  4.395878e-01
16577.9  4.369155e-01
16587.9  4.319673e-01
16597.9  4.230716e-01
16607.9  4.148902e-01
16617.9  3.991478e-01
16627.9  3.833617e-01
16637.9  3.594844e-01
16647.9  3.357367e-01
16657.9  3.093796e-01
16667.9  2.816244e-01
16677.9  2.552710e-01
16687.9  2.261585e-01
16697.9  1.975606e-01
16707.9  1.733204e-01
16717.9  1.489246e-01
16727.9  1.283295e-01
16737.9  1.090726e-01
16747.9  9.363592e-02
16757.9  8.138878e-02
16767.9  7.069984e-02
16777.9  6.269604e-02
16787.9  5.462800e-02
16797.9  4.802452e-02
16807.9  4.217755e-02
16817.9  3.764058e-02
16827.9  3.307443e-02
16837.9  2.986108e-02
16847.9  2.650945e-02
16857.9  2.295836e-02
16867.9  1.967116e-02
16877.9  1.662554e-02
16887.9  1.393675e-02
16897.9  1.176284e-02
16907.9  9.904010e-03
16917.9  8.370298e-03
16927.9  6.994969e-03
16937.9  5.929959e-03
16947.9  5.003416e-03
16957.9  4.208655e-03
16967.9  3.589583e-03
16977.9  3.040043e-03
16987.9  2.593513e-03
16997.9  2.220837e-03
17007.9  1.909114e-03
17017.9  1.635302e-03
17027.9  1.412772e-03
17037.9  1.222933e-03
17047.9  1.054186e-03
17057.9  9.190823e-04
17067.9  8.024172e-04
17077.9  7.007581e-04
17087.9  6.133139e-04
17097.9  5.390698e-04
17107.9  4.732909e-04
17117.9  4.147459e-04
17127.9  3.685174e-04
17137.9  3.245670e-04
17147.9  2.896846e-04
17157.9  2.581106e-04
17167.9  2.306286e-04
17177.9  2.050762e-04
17187.9  1.856821e-04
17197.9  1.671845e-04
17207.9  1.505073e-04
17217.9  1.363902e-04
17227.9  1.231995e-04
17237.9  1.123451e-04
17247.9  1.013625e-04
17257.9  9.319995e-05
17267.9  8.382527e-05
17277.9  7.765017e-05
17287.9  6.977687e-05
17297.9  6.454145e-05
17307.9  5.947316e-05
17317.9  5.332239e-05
17327.9  5.111911e-05
17337.9  4.482821e-05
17347.9  4.150268e-05
17357.9  3.916424e-05
17367.9  3.527593e-05
17377.9  3.337481e-05
17387.9  3.195388e-05
17397.9  2.870766e-05
17407.9  2.628760e-05
17417.9  2.493084e-05
17427.9  2.285416e-05
17437.9  2.134975e-05
17447.9  1.955550e-05
17457.9  1.852585e-05
17467.9  1.680499e-05
17477.9  1.626599e-05
17487.9  1.581382e-05
17497.9  1.470297e-05
17507.9  0.000000e+00
17517.9  0.000000e+00
