# from http://www.stsci.edu/jwst/instruments/nircam/instrumentdesign/filters
# Retrieved March, 2023, dated Nov, 2022 (post-flight)
# Uses modA or modB  filters+DBS+QE+OTE (nrc_plus_ote)
# Units of transmission are PCE (photon to electron conversion efficiency)
# 
44969.0  0.000000e+00
44982.5  0.000000e+00
44996.0  2.996611e-04
45009.5  3.157340e-04
45023.0  3.239933e-04
45036.5  3.301777e-04
45050.1  3.431841e-04
45063.6  3.648281e-04
45077.1  3.711919e-04
45090.6  3.799168e-04
45104.1  3.924853e-04
45117.6  4.208359e-04
45131.1  4.399914e-04
45144.6  4.550990e-04
45158.2  4.742753e-04
45171.7  4.993827e-04
45185.2  5.211001e-04
45198.7  5.282661e-04
45212.2  5.444574e-04
45225.7  5.662484e-04
45239.2  5.946898e-04
45252.7  6.097264e-04
45266.3  6.307238e-04
45279.8  6.610825e-04
45293.3  6.938258e-04
45306.8  7.196329e-04
45320.3  7.401318e-04
45333.8  7.803930e-04
45347.3  8.187873e-04
45360.8  8.537595e-04
45374.4  8.728587e-04
45387.9  9.077618e-04
45401.4  9.518055e-04
45414.9  9.954214e-04
45428.4  1.034397e-03
45441.9  1.078115e-03
45455.4  1.142000e-03
45468.9  1.199687e-03
45482.5  1.254619e-03
45496.0  1.305226e-03
45509.5  1.373824e-03
45523.0  1.443682e-03
45536.5  1.504709e-03
45550.0  1.568249e-03
45563.5  1.641890e-03
45577.0  1.731863e-03
45590.5  1.806619e-03
45604.1  1.885140e-03
45617.6  1.971458e-03
45631.1  2.080820e-03
45644.6  2.187168e-03
45658.1  2.285602e-03
45671.6  2.402077e-03
45685.1  2.530454e-03
45698.6  2.672243e-03
45712.2  2.793061e-03
45725.7  2.929353e-03
45739.2  3.084076e-03
45752.7  3.257288e-03
45766.2  3.424182e-03
45779.7  3.583493e-03
45793.2  3.776569e-03
45806.7  3.984234e-03
45820.3  4.207564e-03
45833.8  4.420883e-03
45847.3  4.662176e-03
45860.8  4.933828e-03
45874.3  5.219905e-03
45887.8  5.510916e-03
45901.3  5.806982e-03
45914.8  6.152822e-03
45928.4  6.514223e-03
45941.9  6.891733e-03
45955.4  7.281255e-03
45968.9  7.715422e-03
45982.4  8.200246e-03
45995.9  8.698193e-03
46009.4  9.221318e-03
46022.9  9.770310e-03
46036.5  1.039468e-02
46050.0  1.105107e-02
46063.5  1.173637e-02
46077.0  1.247250e-02
46090.5  1.327602e-02
46104.0  1.416233e-02
46117.5  1.508347e-02
46131.0  1.606717e-02
46144.6  1.712587e-02
46158.1  1.829525e-02
46171.6  1.953935e-02
46185.1  2.084805e-02
46198.6  2.227454e-02
46212.1  2.381945e-02
46225.6  2.551191e-02
46239.1  2.730435e-02
46252.7  2.922675e-02
46266.2  3.132669e-02
46279.7  3.361210e-02
46293.2  3.606985e-02
46306.7  3.868857e-02
46320.2  4.154028e-02
46333.7  4.463611e-02
46347.2  4.800354e-02
46360.8  5.160601e-02
46374.3  5.547899e-02
46387.8  5.972279e-02
46401.3  6.429915e-02
46414.8  6.924675e-02
46428.3  7.454144e-02
46441.8  8.026475e-02
46455.3  8.648034e-02
46468.8  9.317712e-02
46482.4  1.003555e-01
46495.9  1.080585e-01
46509.4  1.163789e-01
46522.9  1.252985e-01
46536.4  1.348449e-01
46549.9  1.449848e-01
46563.4  1.557892e-01
46576.9  1.673182e-01
46590.5  1.794672e-01
46604.0  1.923614e-01
46617.5  2.057790e-01
46631.0  2.198525e-01
46644.5  2.347064e-01
46658.0  2.498453e-01
46671.5  2.655276e-01
46685.0  2.817218e-01
46698.6  2.980246e-01
46712.1  3.146790e-01
46725.6  3.314224e-01
46739.1  3.478989e-01
46752.6  3.644488e-01
46766.1  3.805815e-01
46779.6  3.962180e-01
46793.1  4.115903e-01
46806.7  4.258346e-01
46820.2  4.394926e-01
46833.7  4.527380e-01
46847.2  4.644424e-01
46860.7  4.755300e-01
46874.2  4.857726e-01
46887.7  4.947707e-01
46901.2  5.031118e-01
46914.8  5.104096e-01
46928.3  5.167402e-01
46941.8  5.224321e-01
46955.3  5.271297e-01
46968.8  5.312261e-01
46982.3  5.347387e-01
46995.8  5.373603e-01
47009.3  5.396567e-01
47022.9  5.414163e-01
47036.4  5.426955e-01
47049.9  5.437202e-01
47063.4  5.442542e-01
47076.9  5.446369e-01
47090.4  5.448081e-01
47103.9  5.447677e-01
47117.4  5.446079e-01
47131.0  5.442602e-01
47144.5  5.438931e-01
47158.0  5.434834e-01
47171.5  5.429395e-01
47185.0  5.424152e-01
47198.5  5.418808e-01
47212.0  5.413232e-01
47225.5  5.408162e-01
47239.1  5.403039e-01
47252.6  5.397412e-01
47266.1  5.392590e-01
47279.6  5.388197e-01
47293.1  5.383430e-01
47306.6  5.379287e-01
47320.1  5.375213e-01
47333.6  5.372231e-01
47347.1  5.369709e-01
47360.7  5.366985e-01
47374.2  5.364837e-01
47387.7  5.363005e-01
47401.2  5.361607e-01
47414.7  5.360749e-01
47428.2  5.359926e-01
47441.7  5.359033e-01
47455.2  5.358534e-01
47468.8  5.358374e-01
47482.3  5.357886e-01
47495.8  5.357295e-01
47509.3  5.356845e-01
47522.8  5.356371e-01
47536.3  5.356300e-01
47549.8  5.355995e-01
47563.3  5.355420e-01
47576.9  5.355181e-01
47590.4  5.355025e-01
47603.9  5.355052e-01
47617.4  5.354716e-01
47630.9  5.354070e-01
47644.4  5.353513e-01
47657.9  5.352913e-01
47671.4  5.352165e-01
47685.0  5.350954e-01
47698.5  5.349634e-01
47712.0  5.348315e-01
47725.5  5.346863e-01
47739.0  5.345269e-01
47752.5  5.343171e-01
47766.0  5.341092e-01
47779.5  5.339190e-01
47793.1  5.337206e-01
47806.6  5.335064e-01
47820.1  5.332765e-01
47833.6  5.330538e-01
47847.1  5.328552e-01
47860.6  5.326501e-01
47874.1  5.324186e-01
47887.6  5.321657e-01
47901.2  5.319550e-01
47914.7  5.317425e-01
47928.2  5.314914e-01
47941.7  5.312548e-01
47955.2  5.309754e-01
47968.7  5.307157e-01
47982.2  5.304995e-01
47995.7  5.302185e-01
48009.3  5.299392e-01
48022.8  5.297002e-01
48036.3  5.294571e-01
48049.8  5.292277e-01
48063.3  5.290005e-01
48076.8  5.287489e-01
48090.3  5.285542e-01
48103.8  5.283474e-01
48117.4  5.281480e-01
48130.9  5.279514e-01
48144.4  5.277319e-01
48157.9  5.275372e-01
48171.4  5.274071e-01
48184.9  5.272346e-01
48198.4  5.270129e-01
48211.9  5.268479e-01
48225.5  5.266534e-01
48239.0  5.264610e-01
48252.5  5.263076e-01
48266.0  5.260688e-01
48279.5  5.258584e-01
48293.0  5.257255e-01
48306.5  5.255579e-01
48320.0  5.254346e-01
48333.5  5.252347e-01
48347.1  5.250572e-01
48360.6  5.249508e-01
48374.1  5.247813e-01
48387.6  5.246010e-01
48401.1  5.244305e-01
48414.6  5.242346e-01
48428.1  5.240632e-01
48441.6  5.239087e-01
48455.2  5.236965e-01
48468.7  5.234528e-01
48482.2  5.232678e-01
48495.7  5.230582e-01
48509.2  5.228104e-01
48522.7  5.225893e-01
48536.2  5.223135e-01
48549.7  5.220547e-01
48563.3  5.218651e-01
48576.8  5.216002e-01
48590.3  5.213586e-01
48603.8  5.210792e-01
48617.3  5.208076e-01
48630.8  5.205888e-01
48644.3  5.202774e-01
48657.8  5.199369e-01
48671.4  5.196277e-01
48684.9  5.192890e-01
48698.4  5.189641e-01
48711.9  5.186241e-01
48725.4  5.182188e-01
48738.9  5.178228e-01
48752.4  5.174548e-01
48765.9  5.170682e-01
48779.5  5.166485e-01
48793.0  5.160590e-01
48806.5  5.154720e-01
48820.0  5.148908e-01
48833.5  5.141694e-01
48847.0  5.135639e-01
48860.5  5.127829e-01
48874.0  5.121729e-01
48887.6  5.115750e-01
48901.1  5.108035e-01
48914.6  5.101564e-01
48928.1  5.094590e-01
48941.6  5.086350e-01
48955.1  5.079752e-01
48968.6  5.072842e-01
48982.1  5.064298e-01
48995.7  5.056923e-01
49009.2  5.049814e-01
49022.7  5.041487e-01
49036.2  5.034423e-01
49049.7  5.027240e-01
49063.2  5.018251e-01
49076.7  5.011024e-01
49090.2  5.002664e-01
49103.8  4.995642e-01
49117.3  4.988418e-01
49130.8  4.979461e-01
49144.3  4.972159e-01
49157.8  4.965267e-01
49171.3  4.956430e-01
49184.8  4.948852e-01
49198.3  4.941345e-01
49211.8  4.932179e-01
49225.4  4.925192e-01
49238.9  4.918062e-01
49252.4  4.908669e-01
49265.9  4.901116e-01
49279.4  4.893697e-01
49292.9  4.884934e-01
49306.4  4.878012e-01
49319.9  4.870539e-01
49333.5  4.861431e-01
49347.0  4.854427e-01
49360.5  4.845771e-01
49374.0  4.839004e-01
49387.5  4.831609e-01
49401.0  4.822279e-01
49414.5  4.815049e-01
49428.0  4.807764e-01
49441.6  4.798528e-01
49455.1  4.790589e-01
49468.6  4.782284e-01
49482.1  4.772462e-01
49495.6  4.764499e-01
49509.1  4.756067e-01
49522.6  4.745356e-01
49536.1  4.735690e-01
49549.7  4.725957e-01
49563.2  4.714316e-01
49576.7  4.703454e-01
49590.2  4.690367e-01
49603.7  4.677549e-01
49617.2  4.664466e-01
49630.7  4.648944e-01
49644.2  4.633881e-01
49657.8  4.617763e-01
49671.3  4.597426e-01
49684.8  4.578340e-01
49698.3  4.556973e-01
49711.8  4.532574e-01
49725.3  4.506996e-01
49738.8  4.479225e-01
49752.3  4.447657e-01
49765.9  4.415026e-01
49779.4  4.381629e-01
49792.9  4.340420e-01
49806.4  4.299907e-01
49819.9  4.254791e-01
49833.4  4.205555e-01
49846.9  4.155142e-01
49860.4  4.097909e-01
49874.0  4.040428e-01
49887.5  3.976442e-01
49901.0  3.910013e-01
49914.5  3.839161e-01
49928.0  3.766142e-01
49941.5  3.686498e-01
49955.0  3.604919e-01
49968.5  3.521296e-01
49982.1  3.431151e-01
49995.6  3.342872e-01
50009.1  3.246817e-01
50022.6  3.151147e-01
50036.1  3.052652e-01
50049.6  2.953783e-01
50063.1  2.852797e-01
50076.6  2.750328e-01
50090.1  2.647964e-01
50103.7  2.544453e-01
50117.2  2.443686e-01
50130.7  2.340275e-01
50144.2  2.240414e-01
50157.7  2.140261e-01
50171.2  2.041808e-01
50184.7  1.946279e-01
50198.2  1.852607e-01
50211.8  1.761689e-01
50225.3  1.672390e-01
50238.8  1.587018e-01
50252.3  1.503451e-01
50265.8  1.424189e-01
50279.3  1.347634e-01
50292.8  1.273787e-01
50306.3  1.203312e-01
50319.9  1.136259e-01
50333.4  1.072373e-01
50346.9  1.011687e-01
50360.4  9.539708e-02
50373.9  8.988552e-02
50387.4  8.469259e-02
50400.9  7.976880e-02
50414.4  7.514377e-02
50428.0  7.076979e-02
50441.5  6.660451e-02
50455.0  6.269198e-02
50468.5  5.903867e-02
50482.0  5.558764e-02
50495.5  5.234352e-02
50509.0  4.928648e-02
50522.5  4.637641e-02
50536.1  4.367064e-02
50549.6  4.115444e-02
50563.1  3.876824e-02
50576.6  3.653209e-02
50590.1  3.440983e-02
50603.6  3.242158e-02
50617.1  3.058966e-02
50630.6  2.885773e-02
50644.2  2.723456e-02
50657.7  2.570303e-02
50671.2  2.425382e-02
50684.7  2.290464e-02
50698.2  2.165528e-02
50711.7  2.046628e-02
50725.2  1.934120e-02
50738.7  1.828274e-02
50752.3  1.728180e-02
50765.8  1.636816e-02
50779.3  1.550758e-02
50792.8  1.467474e-02
50806.3  1.389043e-02
50819.8  1.315414e-02
50833.3  1.246496e-02
50846.8  1.183283e-02
50860.4  1.122241e-02
50873.9  1.063700e-02
50887.4  1.008902e-02
50900.9  9.571278e-03
50914.4  9.100153e-03
50927.9  8.656908e-03
50941.4  8.216408e-03
50954.9  7.800076e-03
50968.4  7.415349e-03
50982.0  7.052421e-03
50995.5  6.721406e-03
51009.0  0.000000e+00
51022.5  0.000000e+00
