# from http://www.stsci.edu/jwst/instruments/nircam/instrumentdesign/filters
# Retrieved March, 2023, dated Nov, 2022 (post-flight)
# Uses modA or modB  filters+DBS+QE+OTE (nrc_plus_ote)
# Units of transmission are PCE (photon to electron conversion efficiency)
# 
43469.1  0.000000e+00
43482.6  0.000000e+00
43496.1  1.803211e-05
43509.7  1.792888e-05
43523.2  1.833663e-05
43536.7  1.791611e-05
43550.2  1.666886e-05
43563.7  1.414329e-05
43577.2  1.314982e-05
43590.7  1.580345e-05
43604.2  1.760666e-05
43617.8  1.819825e-05
43631.3  2.071969e-05
43644.8  2.464217e-05
43658.3  2.896454e-05
43671.8  3.228401e-05
43685.3  3.405049e-05
43698.8  3.420342e-05
43712.3  3.308812e-05
43725.8  3.685181e-05
43739.4  4.376554e-05
43752.9  5.353062e-05
43766.4  5.959770e-05
43779.9  6.306254e-05
43793.4  6.514793e-05
43806.9  6.655213e-05
43820.4  6.762546e-05
43833.9  6.988276e-05
43847.5  7.335158e-05
43861.0  7.793514e-05
43874.5  8.291493e-05
43888.0  8.746205e-05
43901.5  9.101937e-05
43915.0  9.160492e-05
43928.5  9.397284e-05
43942.0  9.901301e-05
43955.6  1.078071e-04
43969.1  1.166907e-04
43982.6  1.272852e-04
43996.1  1.396778e-04
44009.6  1.540079e-04
44023.1  1.636038e-04
44036.6  1.717889e-04
44050.1  1.794841e-04
44063.7  1.898169e-04
44077.2  2.003462e-04
44090.7  2.125915e-04
44104.2  2.284824e-04
44117.7  2.475687e-04
44131.2  2.655262e-04
44144.7  2.826513e-04
44158.2  3.028786e-04
44171.8  3.278433e-04
44185.3  3.549985e-04
44198.8  3.828125e-04
44212.3  4.139123e-04
44225.8  4.471242e-04
44239.3  4.819465e-04
44252.8  5.162797e-04
44266.3  5.557780e-04
44279.9  5.990782e-04
44293.4  6.458026e-04
44306.9  6.919176e-04
44320.4  7.435635e-04
44333.9  8.010288e-04
44347.4  8.646076e-04
44360.9  9.326033e-04
44374.4  1.006839e-03
44388.0  1.088895e-03
44401.5  1.174721e-03
44415.0  1.266144e-03
44428.5  1.365044e-03
44442.0  1.478218e-03
44455.5  1.602418e-03
44469.0  1.737321e-03
44482.5  1.882923e-03
44496.1  2.043493e-03
44509.6  2.218296e-03
44523.1  2.408974e-03
44536.6  2.621037e-03
44550.1  2.858480e-03
44563.6  3.121378e-03
44577.1  3.410768e-03
44590.6  3.730386e-03
44604.1  4.083027e-03
44617.7  4.472652e-03
44631.2  4.904320e-03
44644.7  5.383286e-03
44658.2  5.915204e-03
44671.7  6.509992e-03
44685.2  7.176010e-03
44698.7  7.921099e-03
44712.2  8.759294e-03
44725.8  9.697340e-03
44739.3  1.074408e-02
44752.8  1.191422e-02
44766.3  1.324617e-02
44779.8  1.474620e-02
44793.3  1.643484e-02
44806.8  1.833950e-02
44820.3  2.049626e-02
44833.9  2.293007e-02
44847.4  2.568595e-02
44860.9  2.882790e-02
44874.4  3.239030e-02
44887.9  3.643562e-02
44901.4  4.105596e-02
44914.9  4.630225e-02
44928.4  5.226625e-02
44942.0  5.908643e-02
44955.5  6.683811e-02
44969.0  7.564069e-02
44982.5  8.564613e-02
44996.0  9.696288e-02
45009.5  1.097326e-01
45023.0  1.241130e-01
45036.5  1.401273e-01
45050.1  1.579476e-01
45063.6  1.776895e-01
45077.1  1.989489e-01
45090.6  2.219666e-01
45104.1  2.467130e-01
45117.6  2.722587e-01
45131.1  2.985593e-01
45144.6  3.255684e-01
45158.2  3.519849e-01
45171.7  3.772377e-01
45185.2  4.016893e-01
45198.7  4.241912e-01
45212.2  4.437761e-01
45225.7  4.615489e-01
45239.2  4.769415e-01
45252.7  4.888407e-01
45266.3  4.989312e-01
45279.8  5.071882e-01
45293.3  5.125766e-01
45306.8  5.167373e-01
45320.3  5.197871e-01
45333.8  5.212241e-01
45347.3  5.219408e-01
45360.8  5.221333e-01
45374.4  5.216589e-01
45387.9  5.209162e-01
45401.4  5.200512e-01
45414.9  5.189755e-01
45428.4  5.179300e-01
45441.9  5.169736e-01
45455.4  5.160492e-01
45468.9  5.152394e-01
45482.5  5.145864e-01
45496.0  5.140636e-01
45509.5  5.137205e-01
45523.0  5.135299e-01
45536.5  5.134259e-01
45550.0  5.135665e-01
45563.5  5.137468e-01
45577.0  5.140144e-01
45590.5  5.144254e-01
45604.1  5.148519e-01
45617.6  5.153439e-01
45631.1  5.158878e-01
45644.6  5.163996e-01
45658.1  5.169203e-01
45671.6  5.175029e-01
45685.1  5.180163e-01
45698.6  5.184932e-01
45712.2  5.189488e-01
45725.7  5.193401e-01
45739.2  5.197009e-01
45752.7  5.199689e-01
45766.2  5.201698e-01
45779.7  5.203342e-01
45793.2  5.204541e-01
45806.7  5.204818e-01
45820.3  5.204691e-01
45833.8  5.203707e-01
45847.3  5.202353e-01
45860.8  5.200806e-01
45874.3  5.198103e-01
45887.8  5.195290e-01
45901.3  5.192491e-01
45914.8  5.189100e-01
45928.4  5.185413e-01
45941.9  5.181498e-01
45955.4  5.177695e-01
45968.9  5.173776e-01
45982.4  5.169770e-01
45995.9  5.165513e-01
46009.4  5.161492e-01
46022.9  5.157702e-01
46036.5  5.153960e-01
46050.0  5.150252e-01
46063.5  5.146503e-01
46077.0  5.143352e-01
46090.5  5.140042e-01
46104.0  5.136767e-01
46117.5  5.133595e-01
46131.0  5.130461e-01
46144.6  5.127850e-01
46158.1  5.125220e-01
46171.6  5.122417e-01
46185.1  5.120000e-01
46198.6  5.117855e-01
46212.1  5.115350e-01
46225.6  5.112876e-01
46239.1  5.110485e-01
46252.7  5.107794e-01
46266.2  5.105570e-01
46279.7  5.103036e-01
46293.2  5.099976e-01
46306.7  5.097325e-01
46320.2  5.094074e-01
46333.7  5.091085e-01
46347.2  5.087524e-01
46360.8  5.083473e-01
46374.3  5.079886e-01
46387.8  5.076100e-01
46401.3  5.071445e-01
46414.8  5.067041e-01
46428.3  5.062588e-01
46441.8  5.057338e-01
46455.3  5.052409e-01
46468.8  5.047046e-01
46482.4  5.041064e-01
46495.9  5.035752e-01
46509.4  5.030000e-01
46522.9  5.023335e-01
46536.4  5.016948e-01
46549.9  5.010601e-01
46563.4  5.003465e-01
46576.9  4.996588e-01
46590.5  4.988796e-01
46604.0  4.981625e-01
46617.5  4.974636e-01
46631.0  4.966695e-01
46644.5  4.959295e-01
46658.0  4.951766e-01
46671.5  4.943525e-01
46685.0  4.936095e-01
46698.6  4.928204e-01
46712.1  4.919484e-01
46725.6  4.911505e-01
46739.1  4.903613e-01
46752.6  4.894863e-01
46766.1  4.886479e-01
46779.6  4.878042e-01
46793.1  4.868810e-01
46806.7  4.860220e-01
46820.2  4.850546e-01
46833.7  4.841350e-01
46847.2  4.832054e-01
46860.7  4.821869e-01
46874.2  4.812247e-01
46887.7  4.801957e-01
46901.2  4.790704e-01
46914.8  4.779904e-01
46928.3  4.768521e-01
46941.8  4.756046e-01
46955.3  4.743294e-01
46968.8  4.730113e-01
46982.3  4.715893e-01
46995.8  4.700797e-01
47009.3  4.684914e-01
47022.9  4.667222e-01
47036.4  4.648700e-01
47049.9  4.629206e-01
47063.4  4.606968e-01
47076.9  4.583255e-01
47090.4  4.557667e-01
47103.9  4.529441e-01
47117.4  4.498892e-01
47131.0  4.465451e-01
47144.5  4.427593e-01
47158.0  4.387461e-01
47171.5  4.342857e-01
47185.0  4.293234e-01
47198.5  4.240742e-01
47212.0  4.180785e-01
47225.5  4.116463e-01
47239.1  4.048688e-01
47252.6  3.970219e-01
47266.1  3.888569e-01
47279.6  3.800830e-01
47293.1  3.704384e-01
47306.6  3.605194e-01
47320.1  3.496670e-01
47333.6  3.383225e-01
47347.1  3.267594e-01
47360.7  3.141447e-01
47374.2  3.014614e-01
47387.7  2.884294e-01
47401.2  2.749186e-01
47414.7  2.615590e-01
47428.2  2.478462e-01
47441.7  2.341916e-01
47455.2  2.208401e-01
47468.8  2.073423e-01
47482.3  1.943385e-01
47495.8  1.816564e-01
47509.3  1.692996e-01
47522.8  1.575491e-01
47536.3  1.461754e-01
47549.8  1.354030e-01
47563.3  1.252383e-01
47576.9  1.155614e-01
47590.4  1.065449e-01
47603.9  9.809081e-02
47617.4  9.020254e-02
47630.9  8.289588e-02
47644.4  7.608622e-02
47657.9  6.981373e-02
47671.4  6.403022e-02
47685.0  5.869949e-02
47698.5  5.380442e-02
47712.0  4.930245e-02
47725.5  4.517964e-02
47739.0  4.140356e-02
47752.5  3.795403e-02
47766.0  3.479750e-02
47779.5  3.191203e-02
47793.1  2.927817e-02
47806.6  2.686798e-02
47820.1  2.467334e-02
47833.6  2.266636e-02
47847.1  2.083341e-02
47860.6  1.916660e-02
47874.1  1.763966e-02
47887.6  1.624623e-02
47901.2  1.496850e-02
47914.7  1.379505e-02
47928.2  1.272735e-02
47941.7  1.174861e-02
47955.2  1.085540e-02
47968.7  1.003571e-02
47982.2  9.282020e-03
47995.7  8.596506e-03
48009.3  7.965841e-03
48022.8  7.389082e-03
48036.3  6.856341e-03
48049.8  6.363455e-03
48063.3  5.909825e-03
48076.8  5.489591e-03
48090.3  5.101687e-03
48103.8  4.745729e-03
48117.4  4.417266e-03
48130.9  4.121709e-03
48144.4  3.847612e-03
48157.9  3.594239e-03
48171.4  3.358071e-03
48184.9  3.137611e-03
48198.4  2.933957e-03
48211.9  2.744690e-03
48225.5  2.568473e-03
48239.0  2.405601e-03
48252.5  2.253977e-03
48266.0  2.112804e-03
48279.5  1.980339e-03
48293.0  1.856191e-03
48306.5  1.744643e-03
48320.0  1.641766e-03
48333.5  1.548625e-03
48347.1  1.459388e-03
48360.6  1.373948e-03
48374.1  1.295777e-03
48387.6  1.223233e-03
48401.1  1.158598e-03
48414.6  1.095995e-03
48428.1  1.035346e-03
48441.6  9.780231e-04
48455.2  9.239744e-04
48468.7  8.741980e-04
48482.2  8.267412e-04
48495.7  7.812554e-04
48509.2  7.393525e-04
48522.7  7.001622e-04
48536.2  6.637287e-04
48549.7  6.299616e-04
48563.3  5.990571e-04
48576.8  5.724403e-04
48590.3  5.480246e-04
48603.8  5.210804e-04
48617.3  4.943827e-04
48630.8  4.671326e-04
48644.3  4.444673e-04
48657.8  4.245078e-04
48671.4  4.055889e-04
48684.9  3.873782e-04
48698.4  3.696303e-04
48711.9  3.550186e-04
48725.4  3.425466e-04
48738.9  3.284399e-04
48752.4  3.143445e-04
48765.9  2.994146e-04
48779.5  2.868086e-04
48793.0  2.762200e-04
48806.5  2.645897e-04
48820.0  2.531396e-04
48833.5  2.421220e-04
48847.0  2.330403e-04
48860.5  2.262255e-04
48874.0  2.175524e-04
48887.6  2.083395e-04
48901.1  1.979378e-04
48914.6  1.887809e-04
48928.1  1.816717e-04
48941.6  1.742174e-04
48955.1  1.667544e-04
48968.6  1.600120e-04
48982.1  1.534808e-04
48995.7  1.468562e-04
49009.2  1.386973e-04
49022.7  1.288539e-04
49036.2  1.209238e-04
49049.7  1.140131e-04
49063.2  1.098448e-04
49076.7  1.050629e-04
49090.2  9.879878e-05
49103.8  9.380095e-05
49117.3  8.961243e-05
49130.8  8.819272e-05
49144.3  8.729095e-05
49157.8  8.613485e-05
49171.3  8.507895e-05
49184.8  8.414287e-05
49198.3  8.315820e-05
49211.8  8.213720e-05
49225.4  8.189536e-05
49238.9  8.211085e-05
49252.4  8.364611e-05
49265.9  8.418541e-05
49279.4  8.362824e-05
49292.9  8.179766e-05
49306.4  7.966230e-05
49319.9  7.754618e-05
49333.5  7.458696e-05
49347.0  6.965778e-05
49360.5  6.465982e-05
49374.0  5.973299e-05
49387.5  5.647225e-05
49401.0  5.354855e-05
49414.5  4.936089e-05
49428.0  4.572023e-05
49441.6  4.265314e-05
49455.1  4.123961e-05
49468.6  4.096757e-05
49482.1  4.045075e-05
49495.6  3.995146e-05
49509.1  3.962829e-05
49522.6  3.923454e-05
49536.1  3.869431e-05
49549.7  3.783218e-05
49563.2  3.687032e-05
49576.7  3.702338e-05
49590.2  3.728175e-05
49603.7  3.556396e-05
49617.2  3.318563e-05
49630.7  2.956417e-05
49644.2  2.734290e-05
49657.8  2.602953e-05
49671.3  2.384097e-05
49684.8  2.170227e-05
49698.3  2.000809e-05
49711.8  1.976545e-05
49725.3  2.280530e-05
49738.8  2.466169e-05
49752.3  2.524875e-05
49765.9  2.314565e-05
49779.4  2.051603e-05
49792.9  2.002999e-05
49806.4  1.947223e-05
49819.9  1.838848e-05
49833.4  1.743032e-05
49846.9  1.676587e-05
49860.4  1.770447e-05
49874.0  1.948425e-05
49887.5  1.806412e-05
49901.0  1.693162e-05
49914.5  1.576868e-05
49928.0  1.636825e-05
49941.5  1.968134e-05
49955.0  2.120487e-05
49968.5  2.088392e-05
49982.1  1.695619e-05
49995.6  1.329949e-05
50009.1  8.844882e-06
50022.6  8.169672e-06
50036.1  7.789928e-06
50049.6  7.860840e-06
50063.1  8.580981e-06
50076.6  9.783860e-06
50090.1  1.141723e-05
50103.7  1.058788e-05
50117.2  9.442004e-06
50130.7  7.792684e-06
50144.2  7.270036e-06
50157.7  8.244339e-06
50171.2  9.320889e-06
50184.7  9.846781e-06
50198.2  1.032140e-05
50211.8  1.084658e-05
50225.3  9.986346e-06
50238.8  8.182712e-06
50252.3  4.498242e-06
50265.8  4.354158e-06
50279.3  4.217918e-06
50292.8  4.350415e-06
50306.3  3.364230e-06
50319.9  8.212808e-07
50333.4  1.189599e-06
50346.9  2.678381e-06
50360.4  4.117139e-06
50373.9  4.485269e-06
50387.4  4.939326e-06
50400.9  5.216144e-06
50414.4  5.597247e-06
50428.0  6.176422e-06
50441.5  6.041491e-06
50455.0  5.445269e-06
50468.5  4.843009e-06
50482.0  4.330190e-06
50495.5  3.264724e-06
50509.0  2.451462e-06
50522.5  1.146011e-06
50536.1  2.567001e-07
50549.6  1.192029e-08
50563.1  4.914499e-09
50576.6  4.907671e-09
50590.1  4.899084e-09
50603.6  4.892226e-09
50617.1  4.764882e-08
50630.6  1.921797e-06
50644.2  3.212101e-06
50657.7  4.521643e-06
50671.2  3.159340e-06
50684.7  5.905481e-07
50698.2  2.787684e-07
50711.7  1.889015e-06
50725.2  2.760271e-06
50738.7  1.054477e-06
50752.3  2.254149e-07
50765.8  2.303030e-08
50779.3  4.810227e-09
50792.8  4.803491e-09
50806.3  4.797485e-09
50819.8  4.791460e-09
50833.3  4.784617e-09
50846.8  4.778543e-09
50860.4  4.771618e-09
50873.9  4.765493e-09
50887.4  4.759348e-09
50900.9  4.752307e-09
50914.4  4.746110e-09
50927.9  4.739891e-09
50941.4  4.732728e-09
50954.9  4.726456e-09
50968.4  4.720162e-09
50982.0  5.884918e-09
50995.5  3.189748e-08
51009.0  0.000000e+00
51022.5  0.000000e+00
