# from http://www.stsci.edu/jwst/instruments/nircam/instrumentdesign/filters
# Retrieved March, 2023, dated Nov, 2022 (post-flight)
# Uses modA or modB  filters+DBS+QE+OTE (nrc_plus_ote)
# Units of transmission are PCE (photon to electron conversion efficiency)
# 
43469.1  0.000000e+00
43482.6  0.000000e+00
43496.1  2.217110e-05
43509.7  2.323001e-05
43523.2  2.364026e-05
43536.7  2.469654e-05
43550.2  2.725981e-05
43563.7  2.979733e-05
43577.2  3.130061e-05
43590.7  3.296486e-05
43604.2  3.549573e-05
43617.8  3.610212e-05
43631.3  3.549519e-05
43644.8  3.692052e-05
43658.3  3.933770e-05
43671.8  4.241339e-05
43685.3  4.507710e-05
43698.8  4.771433e-05
43712.3  5.251486e-05
43725.8  5.779333e-05
43739.4  6.189902e-05
43752.9  6.413092e-05
43766.4  6.549307e-05
43779.9  6.875822e-05
43793.4  7.428746e-05
43806.9  8.273661e-05
43820.4  9.115530e-05
43833.9  9.708203e-05
43847.5  1.013889e-04
43861.0  1.057563e-04
43874.5  1.138999e-04
43888.0  1.224330e-04
43901.5  1.304973e-04
43915.0  1.361529e-04
43928.5  1.430988e-04
43942.0  1.514341e-04
43955.6  1.615954e-04
43969.1  1.712285e-04
43982.6  1.809326e-04
43996.1  1.912700e-04
44009.6  2.036329e-04
44023.1  2.170584e-04
44036.6  2.302493e-04
44050.1  2.430435e-04
44063.7  2.571190e-04
44077.2  2.726481e-04
44090.7  2.883463e-04
44104.2  3.026087e-04
44117.7  3.170641e-04
44131.2  3.339406e-04
44144.7  3.534295e-04
44158.2  3.753467e-04
44171.8  4.009041e-04
44185.3  4.295811e-04
44198.8  4.614817e-04
44212.3  4.917199e-04
44225.8  5.223798e-04
44239.3  5.538247e-04
44252.8  5.868129e-04
44266.3  6.205295e-04
44279.9  6.571115e-04
44293.4  6.978742e-04
44306.9  7.454747e-04
44320.4  7.957791e-04
44333.9  8.490530e-04
44347.4  9.059568e-04
44360.9  9.676496e-04
44374.4  1.034021e-03
44388.0  1.105363e-03
44401.5  1.185878e-03
44415.0  1.272820e-03
44428.5  1.365682e-03
44442.0  1.460767e-03
44455.5  1.561299e-03
44469.0  1.669882e-03
44482.5  1.789045e-03
44496.1  1.922195e-03
44509.6  2.067133e-03
44523.1  2.224216e-03
44536.6  2.390987e-03
44550.1  2.571217e-03
44563.6  2.767331e-03
44577.1  2.983792e-03
44590.6  3.219932e-03
44604.1  3.477038e-03
44617.7  3.757408e-03
44631.2  4.068923e-03
44644.7  4.407452e-03
44658.2  4.775836e-03
44671.7  5.179084e-03
44685.2  5.624851e-03
44698.7  6.113924e-03
44712.2  6.650043e-03
44725.8  7.240937e-03
44739.3  7.893493e-03
44752.8  8.615709e-03
44766.3  9.416106e-03
44779.8  1.029760e-02
44793.3  1.127014e-02
44806.8  1.235074e-02
44820.3  1.355078e-02
44833.9  1.487912e-02
44847.4  1.635469e-02
44860.9  1.800577e-02
44874.4  1.983869e-02
44887.9  2.187525e-02
44901.4  2.415669e-02
44914.9  2.669818e-02
44928.4  2.953184e-02
44942.0  3.270597e-02
44955.5  3.624818e-02
44969.0  4.020124e-02
44982.5  4.463118e-02
44996.0  4.958452e-02
45009.5  5.511098e-02
45023.0  6.128513e-02
45036.5  6.817613e-02
45050.1  7.584612e-02
45063.6  8.436661e-02
45077.1  9.380053e-02
45090.6  1.042381e-01
45104.1  1.157524e-01
45117.6  1.283318e-01
45131.1  1.420523e-01
45144.6  1.569815e-01
45158.2  1.730211e-01
45171.7  1.900681e-01
45185.2  2.082041e-01
45198.7  2.272004e-01
45212.2  2.466364e-01
45225.7  2.666830e-01
45239.2  2.870386e-01
45252.7  3.067330e-01
45266.3  3.262917e-01
45279.8  3.455372e-01
45293.3  3.628655e-01
45306.8  3.793745e-01
45320.3  3.949731e-01
45333.8  4.082945e-01
45347.3  4.203184e-01
45360.8  4.312103e-01
45374.4  4.401021e-01
45387.9  4.477062e-01
45401.4  4.543637e-01
45414.9  4.595387e-01
45428.4  4.637171e-01
45441.9  4.672760e-01
45455.4  4.699330e-01
45468.9  4.718968e-01
45482.5  4.735243e-01
45496.0  4.746889e-01
45509.5  4.754713e-01
45523.0  4.761044e-01
45536.5  4.764864e-01
45550.0  4.767972e-01
45563.5  4.770027e-01
45577.0  4.771350e-01
45590.5  4.772549e-01
45604.1  4.773443e-01
45617.6  4.774534e-01
45631.1  4.775872e-01
45644.6  4.776943e-01
45658.1  4.778171e-01
45671.6  4.780372e-01
45685.1  4.782138e-01
45698.6  4.783781e-01
45712.2  4.785871e-01
45725.7  4.787750e-01
45739.2  4.789750e-01
45752.7  4.791401e-01
45766.2  4.792693e-01
45779.7  4.793911e-01
45793.2  4.795262e-01
45806.7  4.795900e-01
45820.3  4.796308e-01
45833.8  4.796184e-01
45847.3  4.795803e-01
45860.8  4.795328e-01
45874.3  4.793715e-01
45887.8  4.791937e-01
45901.3  4.790116e-01
45914.8  4.787500e-01
45928.4  4.784401e-01
45941.9  4.780910e-01
45955.4  4.777251e-01
45968.9  4.773316e-01
45982.4  4.769105e-01
45995.9  4.764221e-01
46009.4  4.759395e-01
46022.9  4.754610e-01
46036.5  4.749511e-01
46050.0  4.744270e-01
46063.5  4.738789e-01
46077.0  4.733706e-01
46090.5  4.728374e-01
46104.0  4.722965e-01
46117.5  4.717560e-01
46131.0  4.712192e-01
46144.6  4.707304e-01
46158.1  4.702301e-01
46171.6  4.697126e-01
46185.1  4.692306e-01
46198.6  4.687866e-01
46212.1  4.683153e-01
46225.6  4.678535e-01
46239.1  4.674202e-01
46252.7  4.669734e-01
46266.2  4.665916e-01
46279.7  4.661930e-01
46293.2  4.657585e-01
46306.7  4.653943e-01
46320.2  4.650061e-01
46333.7  4.646599e-01
46347.2  4.642828e-01
46360.8  4.638816e-01
46374.3  4.635390e-01
46387.8  4.632021e-01
46401.3  4.627919e-01
46414.8  4.624072e-01
46428.3  4.620448e-01
46441.8  4.616202e-01
46455.3  4.612368e-01
46468.8  4.608197e-01
46482.4  4.603529e-01
46495.9  4.599599e-01
46509.4  4.595348e-01
46522.9  4.590290e-01
46536.4  4.585475e-01
46549.9  4.580807e-01
46563.4  4.575452e-01
46576.9  4.570377e-01
46590.5  4.564460e-01
46604.0  4.559109e-01
46617.5  4.553939e-01
46631.0  4.547805e-01
46644.5  4.542099e-01
46658.0  4.536206e-01
46671.5  4.529686e-01
46685.0  4.523939e-01
46698.6  4.517753e-01
46712.1  4.510825e-01
46725.6  4.504647e-01
46739.1  4.498663e-01
46752.6  4.491927e-01
46766.1  4.485523e-01
46779.6  4.479183e-01
46793.1  4.472186e-01
46806.7  4.466026e-01
46820.2  4.458942e-01
46833.7  4.452359e-01
46847.2  4.446005e-01
46860.7  4.439010e-01
46874.2  4.432773e-01
46887.7  4.426286e-01
46901.2  4.419153e-01
46914.8  4.412935e-01
46928.3  4.406648e-01
46941.8  4.399621e-01
46955.3  4.392939e-01
46968.8  4.386436e-01
46982.3  4.379442e-01
46995.8  4.372853e-01
47009.3  4.366051e-01
47022.9  4.358319e-01
47036.4  4.351173e-01
47049.9  4.343840e-01
47063.4  4.335358e-01
47076.9  4.326925e-01
47090.4  4.317609e-01
47103.9  4.308322e-01
47117.4  4.298290e-01
47131.0  4.286973e-01
47144.5  4.274680e-01
47158.0  4.261668e-01
47171.5  4.246952e-01
47185.0  4.230504e-01
47198.5  4.212813e-01
47212.0  4.191882e-01
47225.5  4.169220e-01
47239.1  4.144858e-01
47252.6  4.114698e-01
47266.1  4.082630e-01
47279.6  4.046900e-01
47293.1  4.005403e-01
47306.6  3.961372e-01
47320.1  3.909914e-01
47333.6  3.853548e-01
47347.1  3.793811e-01
47360.7  3.723398e-01
47374.2  3.649284e-01
47387.7  3.568592e-01
47401.2  3.478844e-01
47414.7  3.386003e-01
47428.2  3.283639e-01
47441.7  3.175425e-01
47455.2  3.064538e-01
47468.8  2.943466e-01
47482.3  2.821349e-01
47495.8  2.695308e-01
47509.3  2.564550e-01
47522.8  2.435043e-01
47536.3  2.301653e-01
47549.8  2.169674e-01
47563.3  2.040176e-01
47576.9  1.909871e-01
47590.4  1.784791e-01
47603.9  1.662696e-01
47617.4  1.544594e-01
47630.9  1.432633e-01
47644.4  1.324234e-01
47657.9  1.222468e-01
47671.4  1.126636e-01
47685.0  1.036128e-01
47698.5  9.520824e-02
47712.0  8.734140e-02
47725.5  8.005474e-02
47739.0  7.332787e-02
47752.5  6.708256e-02
47766.0  6.135220e-02
47779.5  5.608442e-02
47793.1  5.125722e-02
47806.6  4.683994e-02
47820.1  4.279178e-02
47833.6  3.909675e-02
47847.1  3.572508e-02
47860.6  3.265516e-02
47874.1  2.985326e-02
47887.6  2.730108e-02
47901.2  2.497915e-02
47914.7  2.286317e-02
47928.2  2.094070e-02
47941.7  1.918681e-02
47955.2  1.758977e-02
47968.7  1.613707e-02
47982.2  1.481235e-02
47995.7  1.360517e-02
48009.3  1.250029e-02
48022.8  1.149238e-02
48036.3  1.057534e-02
48049.8  9.736514e-03
48063.3  8.971609e-03
48076.8  8.268800e-03
48090.3  7.625349e-03
48103.8  7.039969e-03
48117.4  6.503176e-03
48130.9  6.013961e-03
48144.4  5.563646e-03
48157.9  5.150236e-03
48171.4  4.773045e-03
48184.9  4.424887e-03
48198.4  4.103818e-03
48211.9  3.808393e-03
48225.5  3.536200e-03
48239.0  3.289027e-03
48252.5  3.061253e-03
48266.0  2.851656e-03
48279.5  2.657974e-03
48293.0  2.479306e-03
48306.5  2.314308e-03
48320.0  2.160878e-03
48333.5  2.017027e-03
48347.1  1.883597e-03
48360.6  1.760024e-03
48374.1  1.645045e-03
48387.6  1.537789e-03
48401.1  1.437828e-03
48414.6  1.346565e-03
48428.1  1.263644e-03
48441.6  1.188105e-03
48455.2  1.117531e-03
48468.7  1.050938e-03
48482.2  9.896063e-04
48495.7  9.332472e-04
48509.2  8.800506e-04
48522.7  8.297406e-04
48536.2  7.798714e-04
48549.7  7.330769e-04
48563.3  6.892425e-04
48576.8  6.467808e-04
48590.3  6.065161e-04
48603.8  5.679666e-04
48617.3  5.337609e-04
48630.8  5.050336e-04
48644.3  4.801758e-04
48657.8  4.577166e-04
48671.4  4.349032e-04
48684.9  4.125046e-04
48698.4  3.896310e-04
48711.9  3.674335e-04
48725.4  3.460861e-04
48738.9  3.283607e-04
48752.4  3.123581e-04
48765.9  2.991229e-04
48779.5  2.854883e-04
48793.0  2.714882e-04
48806.5  2.574807e-04
48820.0  2.442068e-04
48833.5  2.328273e-04
48847.0  2.223008e-04
48860.5  2.125574e-04
48874.0  2.034768e-04
48887.6  1.948621e-04
48901.1  1.851502e-04
48914.6  1.758700e-04
48928.1  1.667933e-04
48941.6  1.597866e-04
48955.1  1.543151e-04
48968.6  1.483738e-04
48982.1  1.423282e-04
48995.7  1.353862e-04
49009.2  1.303953e-04
49022.7  1.275566e-04
49036.2  1.243541e-04
49049.7  1.210116e-04
49063.2  1.129110e-04
49076.7  1.055564e-04
49090.2  9.895894e-05
49103.8  9.384636e-05
49117.3  8.975294e-05
49130.8  8.582956e-05
49144.3  8.228143e-05
49157.8  7.998331e-05
49171.3  7.749171e-05
49184.8  7.470657e-05
49198.3  7.115025e-05
49211.8  6.739170e-05
49225.4  6.548700e-05
49238.9  6.390201e-05
49252.4  6.294907e-05
49265.9  6.166674e-05
49279.4  6.000346e-05
49292.9  5.808087e-05
49306.4  5.616932e-05
49319.9  5.392689e-05
49333.5  5.204643e-05
49347.0  5.092727e-05
49360.5  5.011695e-05
49374.0  4.943651e-05
49387.5  4.780807e-05
49401.0  4.611445e-05
49414.5  4.565292e-05
49428.0  4.562703e-05
49441.6  4.632361e-05
49455.1  4.602152e-05
49468.6  4.501813e-05
49482.1  4.353325e-05
49495.6  4.201444e-05
49509.1  4.055397e-05
49522.6  3.918529e-05
49536.1  3.792993e-05
49549.7  3.776684e-05
49563.2  3.828138e-05
49576.7  3.807651e-05
49590.2  3.748502e-05
49603.7  3.427509e-05
49617.2  3.078665e-05
49630.7  2.833187e-05
49644.2  2.765753e-05
49657.8  2.802070e-05
49671.3  2.837271e-05
49684.8  2.875836e-05
49698.3  2.882651e-05
49711.8  2.861608e-05
49725.3  2.770545e-05
49738.8  2.679826e-05
49752.3  2.587983e-05
49765.9  2.495628e-05
49779.4  2.423902e-05
49792.9  2.156315e-05
49806.4  1.973491e-05
49819.9  1.780935e-05
49833.4  1.674079e-05
49846.9  1.677353e-05
49860.4  1.752157e-05
49874.0  1.840271e-05
49887.5  2.021595e-05
49901.0  2.235109e-05
49914.5  2.448876e-05
49928.0  2.592006e-05
49941.5  2.564023e-05
49955.0  2.491353e-05
49968.5  2.387569e-05
49982.1  2.375522e-05
49995.6  2.403080e-05
50009.1  2.435218e-05
50022.6  2.499378e-05
50036.1  2.522599e-05
50049.6  2.525206e-05
50063.1  2.492052e-05
50076.6  2.469756e-05
50090.1  2.457684e-05
50103.7  2.558515e-05
50117.2  2.694927e-05
50130.7  2.801106e-05
50144.2  2.891205e-05
50157.7  2.920002e-05
50171.2  2.968343e-05
50184.7  3.074376e-05
50198.2  3.164229e-05
50211.8  3.247963e-05
50225.3  3.233857e-05
50238.8  3.202050e-05
50252.3  3.148054e-05
50265.8  3.083975e-05
50279.3  2.981419e-05
50292.8  2.898271e-05
50306.3  2.841965e-05
50319.9  2.864520e-05
50333.4  2.927959e-05
50346.9  2.920431e-05
50360.4  2.897861e-05
50373.9  2.820817e-05
50387.4  2.772088e-05
50400.9  2.810327e-05
50414.4  2.851018e-05
50428.0  2.890194e-05
50441.5  2.867952e-05
50455.0  2.809345e-05
50468.5  2.729023e-05
50482.0  2.648029e-05
50495.5  2.648196e-05
50509.0  2.666567e-05
50522.5  2.777953e-05
50536.1  2.857550e-05
50549.6  2.857689e-05
50563.1  2.754941e-05
50576.6  2.563307e-05
50590.1  2.419303e-05
50603.6  2.301819e-05
50617.1  2.262781e-05
50630.6  2.233893e-05
50644.2  2.161869e-05
50657.7  2.117280e-05
50671.2  2.093353e-05
50684.7  2.081329e-05
50698.2  2.080197e-05
50711.7  2.076711e-05
50725.2  2.069754e-05
50738.7  2.084387e-05
50752.3  2.108119e-05
50765.8  2.028000e-05
50779.3  1.936766e-05
50792.8  1.748273e-05
50806.3  1.608637e-05
50819.8  1.563675e-05
50833.3  1.530963e-05
50846.8  1.521199e-05
50860.4  1.499340e-05
50873.9  1.461795e-05
50887.4  1.485940e-05
50900.9  1.547698e-05
50914.4  1.633197e-05
50927.9  1.735801e-05
50941.4  1.810950e-05
50954.9  1.889845e-05
50968.4  1.957339e-05
50982.0  2.002384e-05
50995.5  1.959246e-05
51009.0  0.000000e+00
51022.5  0.000000e+00
