# from http://www.stsci.edu/jwst/instruments/nircam/instrumentdesign/filters
# Retrieved March, 2023, dated Nov, 2022 (post-flight)
# Uses modA or modB  filters+DBS+QE+OTE (nrc_plus_ote)
# Units of transmission are PCE (photon to electron conversion efficiency)
# 
23478.9  0.000000e+00
23490.9  0.000000e+00
23502.9  4.647499e-06
23514.9  4.996517e-06
23526.9  4.024771e-06
23538.9  3.363599e-06
23550.9  3.308632e-06
23563.0  3.439832e-06
23575.0  3.546808e-06
23587.0  3.834835e-06
23599.0  3.745807e-06
23611.0  3.433418e-06
23623.0  3.617186e-06
23635.0  4.599042e-06
23647.0  5.268589e-06
23659.0  6.680151e-06
23671.0  7.372790e-06
23683.0  9.183269e-06
23695.1  1.165199e-05
23707.1  2.217429e-05
23719.1  3.352013e-05
23731.1  4.779235e-05
23743.1  7.219265e-05
23755.1  9.957361e-05
23767.1  1.360542e-04
23779.1  1.750246e-04
23791.1  2.284539e-04
23803.1  2.966933e-04
23815.2  3.803229e-04
23827.2  4.843720e-04
23839.2  6.145660e-04
23851.2  7.793893e-04
23863.2  9.816183e-04
23875.2  1.242350e-03
23887.2  1.569857e-03
23899.2  1.987664e-03
23911.2  2.522496e-03
23923.2  3.206745e-03
23935.3  4.099012e-03
23947.3  5.257576e-03
23959.3  6.777508e-03
23971.3  8.795379e-03
23983.3  1.147014e-02
23995.3  1.503755e-02
24007.3  1.978604e-02
24019.3  2.609524e-02
24031.3  3.445404e-02
24043.3  4.535832e-02
24055.3  5.939013e-02
24067.4  7.706051e-02
24079.4  9.874039e-02
24091.4  1.245760e-01
24103.4  1.539793e-01
24115.4  1.859564e-01
24127.4  2.188969e-01
24139.4  2.507890e-01
24151.4  2.797551e-01
24163.4  3.039625e-01
24175.4  3.228694e-01
24187.5  3.365839e-01
24199.5  3.458937e-01
24211.5  3.521723e-01
24223.5  3.560314e-01
24235.5  3.584899e-01
24247.5  3.601932e-01
24259.5  3.615627e-01
24271.5  3.630291e-01
24283.5  3.643279e-01
24295.5  3.657313e-01
24307.6  3.672148e-01
24319.6  3.687455e-01
24331.6  3.704740e-01
24343.6  3.719568e-01
24355.6  3.733585e-01
24367.6  3.746528e-01
24379.6  3.758660e-01
24391.6  3.771094e-01
24403.6  3.779808e-01
24415.6  3.786658e-01
24427.6  3.792173e-01
24439.7  3.796228e-01
24451.7  3.800960e-01
24463.7  3.802618e-01
24475.7  3.803434e-01
24487.7  3.803456e-01
24499.7  3.802809e-01
24511.7  3.795925e-01
24523.7  3.790772e-01
24535.7  3.785300e-01
24547.7  3.779721e-01
24559.8  3.775608e-01
24571.8  3.769439e-01
24583.8  3.765435e-01
24595.8  3.761616e-01
24607.8  3.758030e-01
24619.8  3.754691e-01
24631.8  3.749734e-01
24643.8  3.747298e-01
24655.8  3.745255e-01
24667.8  3.743598e-01
24679.8  3.742586e-01
24691.9  3.742157e-01
24703.9  3.742202e-01
24715.9  3.744832e-01
24727.9  3.746073e-01
24739.9  3.750313e-01
24751.9  3.753789e-01
24763.9  3.758013e-01
24775.9  3.764530e-01
24787.9  3.769147e-01
24799.9  3.776059e-01
24812.0  3.781193e-01
24824.0  3.788200e-01
24836.0  3.795051e-01
24848.0  3.801875e-01
24860.0  3.806099e-01
24872.0  3.811762e-01
24884.0  3.817080e-01
24896.0  3.819793e-01
24908.0  3.823475e-01
24920.0  3.826334e-01
24932.1  3.829270e-01
24944.1  3.831921e-01
24956.1  3.833534e-01
24968.1  3.834600e-01
24980.1  3.834506e-01
24992.1  3.833461e-01
25004.1  3.832012e-01
25016.1  3.829994e-01
25028.1  3.827151e-01
25040.1  3.824163e-01
25052.1  3.820737e-01
25064.2  3.816957e-01
25076.2  3.813196e-01
25088.2  3.809588e-01
25100.2  3.805956e-01
25112.2  3.802384e-01
25124.2  3.799856e-01
25136.2  3.798312e-01
25148.2  3.797139e-01
25160.2  3.796692e-01
25172.2  3.796478e-01
25184.3  3.796594e-01
25196.3  3.797289e-01
25208.3  3.798474e-01
25220.3  3.799768e-01
25232.3  3.801501e-01
25244.3  3.803515e-01
25256.3  3.805612e-01
25268.3  3.808020e-01
25280.3  3.810671e-01
25292.3  3.813004e-01
25304.4  3.815449e-01
25316.4  3.818098e-01
25328.4  3.821503e-01
25340.4  3.824936e-01
25352.4  3.828190e-01
25364.4  3.830891e-01
25376.4  3.833427e-01
25388.4  3.835779e-01
25400.4  3.837693e-01
25412.4  3.839344e-01
25424.4  3.840698e-01
25436.5  3.841548e-01
25448.5  3.842040e-01
25460.5  3.842399e-01
25472.5  3.842008e-01
25484.5  3.841317e-01
25496.5  3.840339e-01
25508.5  3.838299e-01
25520.5  3.837089e-01
25532.5  3.835668e-01
25544.5  3.833012e-01
25556.6  3.829505e-01
25568.6  3.825133e-01
25580.6  3.819951e-01
25592.6  3.813342e-01
25604.6  3.805797e-01
25616.6  3.797114e-01
25628.6  3.787861e-01
25640.6  3.778877e-01
25652.6  3.768741e-01
25664.6  3.759045e-01
25676.7  3.750142e-01
25688.7  3.741873e-01
25700.7  3.736253e-01
25712.7  3.732379e-01
25724.7  3.731067e-01
25736.7  3.733664e-01
25748.7  3.739077e-01
25760.7  3.746734e-01
25772.7  3.755807e-01
25784.7  3.763735e-01
25796.7  3.767287e-01
25808.8  3.763298e-01
25820.8  3.746440e-01
25832.8  3.710854e-01
25844.8  3.651681e-01
25856.8  3.561684e-01
25868.8  3.438574e-01
25880.8  3.280916e-01
25892.8  3.086574e-01
25904.8  2.859818e-01
25916.8  2.606289e-01
25928.9  2.332238e-01
25940.9  2.049798e-01
25952.9  1.763325e-01
25964.9  1.491164e-01
25976.9  1.242638e-01
25988.9  1.020899e-01
26000.9  8.294384e-02
26012.9  6.676623e-02
26024.9  5.341352e-02
26036.9  4.265239e-02
26049.0  3.407688e-02
26061.0  2.714441e-02
26073.0  2.175801e-02
26085.0  1.749838e-02
26097.0  1.411391e-02
26109.0  1.144139e-02
26121.0  9.304733e-03
26133.0  7.602617e-03
26145.0  6.241081e-03
26157.0  5.146966e-03
26169.0  4.270682e-03
26181.1  3.558166e-03
26193.1  2.973596e-03
26205.1  2.504021e-03
26217.1  2.112627e-03
26229.1  1.788206e-03
26241.1  1.529792e-03
26253.1  1.310354e-03
26265.1  1.128608e-03
26277.1  9.777968e-04
26289.1  8.445724e-04
26301.2  7.387824e-04
26313.2  6.475444e-04
26325.2  5.668293e-04
26337.2  5.085130e-04
26349.2  4.480226e-04
26361.2  3.970951e-04
26373.2  3.573794e-04
26385.2  3.200370e-04
26397.2  2.949591e-04
26409.2  2.676310e-04
26421.3  2.407641e-04
26433.3  2.254955e-04
26445.3  2.055949e-04
26457.3  1.879850e-04
26469.3  1.744999e-04
26481.3  1.584782e-04
26493.3  1.496801e-04
26505.3  1.354178e-04
26517.3  1.265657e-04
26529.3  1.228483e-04
26541.3  1.093243e-04
26553.4  1.033434e-04
26565.4  9.840286e-05
26577.4  8.869848e-05
26589.4  8.503726e-05
26601.4  7.665864e-05
26613.4  7.081097e-05
26625.4  6.590008e-05
26637.4  6.100798e-05
26649.4  6.179472e-05
26661.4  5.404717e-05
26673.5  5.143349e-05
26685.5  5.218358e-05
26697.5  4.826909e-05
26709.5  4.842819e-05
26721.5  4.440215e-05
26733.5  4.430302e-05
26745.5  4.870370e-05
26757.5  4.428368e-05
26769.5  4.557055e-05
26781.5  4.292497e-05
26793.5  3.946340e-05
26805.6  3.970555e-05
26817.6  3.878285e-05
26829.6  4.198104e-05
26841.6  4.116296e-05
26853.6  3.954446e-05
26865.6  4.068996e-05
26877.6  3.987147e-05
26889.6  4.120487e-05
26901.6  4.177666e-05
26913.6  4.028602e-05
26925.7  4.153308e-05
26937.7  3.971095e-05
26949.7  4.058631e-05
26961.7  4.142419e-05
26973.7  3.930798e-05
26985.7  4.207075e-05
26997.7  4.215217e-05
27009.7  4.025686e-05
27021.7  3.795995e-05
27033.7  3.735850e-05
27045.8  3.777763e-05
27057.8  3.487552e-05
27069.8  3.766636e-05
27081.8  3.734414e-05
27093.8  3.875710e-05
27105.8  3.912346e-05
27117.8  3.700981e-05
27129.8  3.732832e-05
27141.8  3.615472e-05
27153.8  3.700420e-05
27165.8  3.723854e-05
27177.9  3.513530e-05
27189.9  3.670412e-05
27201.9  3.709883e-05
27213.9  3.747865e-05
27225.9  3.262644e-05
27237.9  3.446930e-05
27249.9  3.574297e-05
27261.9  3.396424e-05
27273.9  3.551992e-05
27285.9  3.445151e-05
27298.0  3.463493e-05
27310.0  3.293661e-05
27322.0  3.026027e-05
27334.0  3.071258e-05
27346.0  2.804533e-05
27358.0  2.910725e-05
27370.0  2.847850e-05
27382.0  2.715109e-05
27394.0  2.837470e-05
27406.0  2.670870e-05
27418.1  2.718378e-05
27430.1  2.636805e-05
27442.1  2.574326e-05
27454.1  2.390371e-05
27466.1  2.351934e-05
27478.1  2.567195e-05
27490.1  2.441861e-05
27502.1  2.350352e-05
27514.1  0.000000e+00
27526.1  0.000000e+00
