# from http://www.stsci.edu/jwst/instruments/nircam/instrumentdesign/filters
# Retrieved March, 2023, dated Nov, 2022 (post-flight)
# Uses modA or modB  filters+DBS+QE+OTE (nrc_plus_ote)
# Units of transmission are PCE (photon to electron conversion efficiency)
# 
23478.9  0.000000e+00
23490.9  0.000000e+00
23502.9  3.151535e-09
23514.9  3.169325e-09
23526.9  3.191315e-09
23538.9  3.218383e-09
23550.9  3.290526e-09
23563.0  3.336254e-09
23575.0  3.388760e-09
23587.0  3.448030e-09
23599.0  3.513860e-09
23611.0  3.663581e-09
23623.0  3.745828e-09
23635.0  3.831745e-09
23647.0  3.920092e-09
23659.0  4.009463e-09
23671.0  4.185360e-09
23683.0  4.268567e-09
23695.1  4.346753e-09
23707.1  5.628228e-06
23719.1  1.311392e-05
23731.1  2.115278e-05
23743.1  4.395641e-05
23755.1  7.065242e-05
23767.1  1.067559e-04
23779.1  1.465702e-04
23791.1  2.025784e-04
23803.1  2.696010e-04
23815.2  3.542556e-04
23827.2  4.597151e-04
23839.2  5.941725e-04
23851.2  7.646600e-04
23863.2  9.726650e-04
23875.2  1.246068e-03
23887.2  1.587783e-03
23899.2  2.030147e-03
23911.2  2.600319e-03
23923.2  3.337377e-03
23935.3  4.308071e-03
23947.3  5.579411e-03
23959.3  7.272584e-03
23971.3  9.545787e-03
23983.3  1.259166e-02
23995.3  1.670796e-02
24007.3  2.224522e-02
24019.3  2.967068e-02
24031.3  3.956992e-02
24043.3  5.254382e-02
24055.3  6.926429e-02
24067.4  9.027456e-02
24079.4  1.159295e-01
24091.4  1.462358e-01
24103.4  1.802548e-01
24115.4  2.165479e-01
24127.4  2.529438e-01
24139.4  2.869180e-01
24151.4  3.163399e-01
24163.4  3.394531e-01
24175.4  3.562170e-01
24187.5  3.673884e-01
24199.5  3.743558e-01
24211.5  3.788494e-01
24223.5  3.815791e-01
24235.5  3.835670e-01
24247.5  3.853890e-01
24259.5  3.873284e-01
24271.5  3.897016e-01
24283.5  3.921047e-01
24295.5  3.947174e-01
24307.6  3.974253e-01
24319.6  4.001359e-01
24331.6  4.029488e-01
24343.6  4.053701e-01
24355.6  4.075634e-01
24367.6  4.094855e-01
24379.6  4.111721e-01
24391.6  4.127648e-01
24403.6  4.138338e-01
24415.6  4.146079e-01
24427.6  4.151704e-01
24439.7  4.155251e-01
24451.7  4.159178e-01
24463.7  4.159666e-01
24475.7  4.159402e-01
24487.7  4.158466e-01
24499.7  4.157034e-01
24511.7  4.149170e-01
24523.7  4.143602e-01
24535.7  4.137910e-01
24547.7  4.132588e-01
24559.8  4.129183e-01
24571.8  4.123779e-01
24583.8  4.120820e-01
24595.8  4.118208e-01
24607.8  4.115906e-01
24619.8  4.113817e-01
24631.8  4.109851e-01
24643.8  4.108536e-01
24655.8  4.107334e-01
24667.8  4.106272e-01
24679.8  4.105679e-01
24691.9  4.105498e-01
24703.9  4.105388e-01
24715.9  4.107786e-01
24727.9  4.108470e-01
24739.9  4.112133e-01
24751.9  4.114761e-01
24763.9  4.117907e-01
24775.9  4.123350e-01
24787.9  4.126604e-01
24799.9  4.132344e-01
24812.0  4.136202e-01
24824.0  4.142011e-01
24836.0  4.147686e-01
24848.0  4.153447e-01
24860.0  4.156478e-01
24872.0  4.161310e-01
24884.0  4.165950e-01
24896.0  4.167989e-01
24908.0  4.171158e-01
24920.0  4.173675e-01
24932.1  4.176645e-01
24944.1  4.179445e-01
24956.1  4.181287e-01
24968.1  4.182811e-01
24980.1  4.183150e-01
24992.1  4.182587e-01
25004.1  4.181740e-01
25016.1  4.180337e-01
25028.1  4.178015e-01
25040.1  4.175631e-01
25052.1  4.172748e-01
25064.2  4.169409e-01
25076.2  4.166114e-01
25088.2  4.162847e-01
25100.2  4.159511e-01
25112.2  4.156114e-01
25124.2  4.153690e-01
25136.2  4.152238e-01
25148.2  4.151101e-01
25160.2  4.150668e-01
25172.2  4.150485e-01
25184.3  4.150436e-01
25196.3  4.150976e-01
25208.3  4.152073e-01
25220.3  4.153120e-01
25232.3  4.154576e-01
25244.3  4.156307e-01
25256.3  4.158157e-01
25268.3  4.160342e-01
25280.3  4.162842e-01
25292.3  4.164926e-01
25304.4  4.167196e-01
25316.4  4.169763e-01
25328.4  4.173186e-01
25340.4  4.176738e-01
25352.4  4.180084e-01
25364.4  4.182775e-01
25376.4  4.185638e-01
25388.4  4.188197e-01
25400.4  4.190337e-01
25412.4  4.192111e-01
25424.4  4.193406e-01
25436.5  4.194332e-01
25448.5  4.195058e-01
25460.5  4.195602e-01
25472.5  4.195108e-01
25484.5  4.194491e-01
25496.5  4.193746e-01
25508.5  4.191584e-01
25520.5  4.190489e-01
25532.5  4.189400e-01
25544.5  4.187342e-01
25556.6  4.184394e-01
25568.6  4.180581e-01
25580.6  4.176071e-01
25592.6  4.170216e-01
25604.6  4.163234e-01
25616.6  4.155403e-01
25628.6  4.147601e-01
25640.6  4.140280e-01
25652.6  4.132048e-01
25664.6  4.124502e-01
25676.7  4.117519e-01
25688.7  4.110726e-01
25700.7  4.106817e-01
25712.7  4.104938e-01
25724.7  4.104345e-01
25736.7  4.107018e-01
25748.7  4.112630e-01
25760.7  4.118421e-01
25772.7  4.123953e-01
25784.7  4.126763e-01
25796.7  4.122494e-01
25808.8  4.108009e-01
25820.8  4.078634e-01
25832.8  4.027752e-01
25844.8  3.952163e-01
25856.8  3.845335e-01
25868.8  3.703573e-01
25880.8  3.527555e-01
25892.8  3.314920e-01
25904.8  3.070268e-01
25916.8  2.799319e-01
25928.9  2.508268e-01
25940.9  2.208855e-01
25952.9  1.906091e-01
25964.9  1.619181e-01
25976.9  1.356551e-01
25988.9  1.120862e-01
26000.9  9.160894e-02
26012.9  7.418461e-02
26024.9  5.969966e-02
26036.9  4.794159e-02
26049.0  3.850350e-02
26061.0  3.081474e-02
26073.0  2.481602e-02
26085.0  2.004408e-02
26097.0  1.622960e-02
26109.0  1.320338e-02
26121.0  1.077401e-02
26133.0  8.829400e-03
26145.0  7.273765e-03
26157.0  6.015695e-03
26169.0  5.006243e-03
26181.1  4.184160e-03
26193.1  3.507739e-03
26205.1  2.962184e-03
26217.1  2.506125e-03
26229.1  2.127643e-03
26241.1  1.825018e-03
26253.1  1.564348e-03
26265.1  1.348695e-03
26277.1  1.172087e-03
26289.1  1.015997e-03
26301.2  8.884884e-04
26313.2  7.784108e-04
26325.2  6.853330e-04
26337.2  6.150353e-04
26349.2  5.410323e-04
26361.2  4.790004e-04
26373.2  4.331959e-04
26385.2  3.871305e-04
26397.2  3.558631e-04
26409.2  3.224380e-04
26421.3  2.909427e-04
26433.3  2.736690e-04
26445.3  2.482138e-04
26457.3  2.283169e-04
26469.3  2.096931e-04
26481.3  1.876488e-04
26493.3  1.792205e-04
26505.3  1.639842e-04
26517.3  1.507563e-04
26529.3  1.451235e-04
26541.3  1.287796e-04
26553.4  1.217063e-04
26565.4  1.158730e-04
26577.4  1.071293e-04
26589.4  1.021479e-04
26601.4  9.273677e-05
26613.4  8.907518e-05
26625.4  8.285735e-05
26637.4  7.720247e-05
26649.4  7.833070e-05
26661.4  6.765424e-05
26673.5  6.751235e-05
26685.5  7.272003e-05
26697.5  6.658987e-05
26709.5  6.438958e-05
26721.5  5.857697e-05
26733.5  5.690784e-05
26745.5  6.478971e-05
26757.5  5.809596e-05
26769.5  6.147481e-05
26781.5  5.713905e-05
26793.5  5.090450e-05
26805.6  5.205059e-05
26817.6  5.239977e-05
26829.6  5.674120e-05
26841.6  5.406112e-05
26853.6  5.600854e-05
26865.6  5.947762e-05
26877.6  5.576724e-05
26889.6  5.587963e-05
26901.6  5.718676e-05
26913.6  5.771990e-05
26925.7  6.039645e-05
26937.7  5.864525e-05
26949.7  5.973883e-05
26961.7  5.972803e-05
26973.7  5.806867e-05
26985.7  5.991411e-05
26997.7  5.999185e-05
27009.7  5.935439e-05
27021.7  5.892058e-05
27033.7  5.868858e-05
27045.8  5.915421e-05
27057.8  5.465443e-05
27069.8  5.849494e-05
27081.8  5.766683e-05
27093.8  6.227735e-05
27105.8  6.347811e-05
27117.8  6.109878e-05
27129.8  6.144707e-05
27141.8  5.768258e-05
27153.8  5.964442e-05
27165.8  6.111288e-05
27177.9  5.714685e-05
27189.9  6.055991e-05
27201.9  6.256855e-05
27213.9  6.131572e-05
27225.9  5.129096e-05
27237.9  5.560112e-05
27249.9  5.599466e-05
27261.9  5.499080e-05
27273.9  6.019702e-05
27285.9  5.921222e-05
27298.0  6.015006e-05
27310.0  5.808311e-05
27322.0  5.230520e-05
27334.0  5.303856e-05
27346.0  5.044830e-05
27358.0  5.374764e-05
27370.0  5.269415e-05
27382.0  4.948542e-05
27394.0  5.264109e-05
27406.0  4.889550e-05
27418.1  4.851405e-05
27430.1  4.606140e-05
27442.1  4.407688e-05
27454.1  4.339581e-05
27466.1  4.535925e-05
27478.1  4.758767e-05
27490.1  4.321212e-05
27502.1  4.178452e-05
27514.1  0.000000e+00
27526.1  0.000000e+00
